ALV-6000/E-WIN Data
Date :	"10/16/2025"
Time :	"12:05:34 PM"
Samplename : 	"NaCl solvent"
SampMemo(0) : 	""
SampMemo(1) : 	""
SampMemo(2) : 	""
SampMemo(3) : 	""
SampMemo(4) : 	""
SampMemo(5) : 	""
SampMemo(6) : 	""
SampMemo(7) : 	""
SampMemo(8) : 	""
SampMemo(9) : 	""
Temperature [K] :	     292.16001
Viscosity [cp]  :	       1.02642
Refractive Index:	       1.33200
Wavelength [nm] :	     632.80000
Angle [°]       :	      72.99900
Duration [s]    :	        60
Runs            :	         1
Mode            :	"SINGLE AUTO CH0 "
MeanCR0 [kHz]   :	      38.35297
MeanCR1 [kHz]   :	       0.00000

"Correlation"
  1.25000E-004	  7.57658E-001
  2.50000E-004	  9.04888E-001
  3.75000E-004	  8.90875E-001
  5.00000E-004	  8.94333E-001
  6.25000E-004	  8.85233E-001
  7.50000E-004	  8.68945E-001
  8.75000E-004	  8.53203E-001
  1.00000E-003	  8.61575E-001
  1.12500E-003	  8.65669E-001
  1.25000E-003	  8.53749E-001
  1.37500E-003	  8.63395E-001
  1.50000E-003	  9.06435E-001
  1.62500E-003	  8.74678E-001
  1.75000E-003	  8.86416E-001
  1.87500E-003	  8.63668E-001
  2.00000E-003	  8.67579E-001
  2.25000E-003	  8.84140E-001
  2.50000E-003	  8.77406E-001
  2.75000E-003	  8.59389E-001
  3.00000E-003	  8.76951E-001
  3.25000E-003	  8.94195E-001
  3.50000E-003	  8.65668E-001
  3.75000E-003	  8.59116E-001
  4.00000E-003	  8.60187E-001
  4.50000E-003	  8.60574E-001
  5.00000E-003	  8.76475E-001
  5.50000E-003	  8.71470E-001
  6.00000E-003	  8.65647E-001
  6.50000E-003	  8.64441E-001
  7.00000E-003	  8.72471E-001
  7.50000E-003	  8.68718E-001
  8.00000E-003	  8.69436E-001
  9.00000E-003	  8.67912E-001
  1.00000E-002	  8.69140E-001
  1.10000E-002	  8.60768E-001
  1.20000E-002	  8.60302E-001
  1.30000E-002	  8.66444E-001
  1.40000E-002	  8.66842E-001
  1.50000E-002	  8.62804E-001
  1.60000E-002	  8.65653E-001
  1.80000E-002	  8.59881E-001
  2.00000E-002	  8.60233E-001
  2.20000E-002	  8.62019E-001
  2.40000E-002	  8.63589E-001
  2.60000E-002	  8.56645E-001
  2.80000E-002	  8.55126E-001
  3.00000E-002	  8.51555E-001
  3.20000E-002	  8.56193E-001
  3.60000E-002	  8.54066E-001
  4.00000E-002	  8.49616E-001
  4.40000E-002	  8.45530E-001
  4.80000E-002	  8.51587E-001
  5.20000E-002	  8.46855E-001
  5.60000E-002	  8.37625E-001
  6.00000E-002	  8.44770E-001
  6.40000E-002	  8.40426E-001
  7.20000E-002	  8.34763E-001
  8.00000E-002	  8.32517E-001
  8.80000E-002	  8.26244E-001
  9.60000E-002	  8.25304E-001
  1.04000E-001	  8.20896E-001
  1.12000E-001	  8.17947E-001
  1.20000E-001	  8.12769E-001
  1.28000E-001	  8.09236E-001
  1.44000E-001	  8.02952E-001
  1.60000E-001	  7.96546E-001
  1.76000E-001	  7.89796E-001
  1.92000E-001	  7.81526E-001
  2.08000E-001	  7.74707E-001
  2.24000E-001	  7.69461E-001
  2.40000E-001	  7.62401E-001
  2.56000E-001	  7.56034E-001
  2.88000E-001	  7.43024E-001
  3.20000E-001	  7.31217E-001
  3.52000E-001	  7.18575E-001
  3.84000E-001	  7.06493E-001
  4.16000E-001	  6.94842E-001
  4.48000E-001	  6.84695E-001
  4.80000E-001	  6.73133E-001
  5.12000E-001	  6.63669E-001
  5.76000E-001	  6.43862E-001
  6.40000E-001	  6.24769E-001
  7.04000E-001	  6.06968E-001
  7.68000E-001	  5.89765E-001
  8.32000E-001	  5.74313E-001
  8.96000E-001	  5.57982E-001
  9.60000E-001	  5.43912E-001
  1.02400E+000	  5.29469E-001
  1.15200E+000	  5.02665E-001
  1.28000E+000	  4.78089E-001
  1.40800E+000	  4.55292E-001
  1.53600E+000	  4.33583E-001
  1.66400E+000	  4.14558E-001
  1.79200E+000	  3.95824E-001
  1.92000E+000	  3.79324E-001
  2.01600E+000	  3.66947E-001
  2.27200E+000	  3.37562E-001
  2.52800E+000	  3.12255E-001
  2.78400E+000	  2.90790E-001
  3.04000E+000	  2.70844E-001
  3.29600E+000	  2.54035E-001
  3.55200E+000	  2.38678E-001
  3.80800E+000	  2.25057E-001
  4.06400E+000	  2.13154E-001
  4.57600E+000	  1.90117E-001
  5.08800E+000	  1.70493E-001
  5.60000E+000	  1.53355E-001
  6.11200E+000	  1.39223E-001
  6.62400E+000	  1.27255E-001
  7.13600E+000	  1.15821E-001
  7.64800E+000	  1.07464E-001
  8.16000E+000	  1.00525E-001
  9.18400E+000	  8.66001E-002
  1.02080E+001	  7.54262E-002
  1.12320E+001	  6.89314E-002
  1.22560E+001	  6.31477E-002
  1.32800E+001	  5.96921E-002
  1.43040E+001	  5.76013E-002
  1.53280E+001	  5.61277E-002
  1.63520E+001	  5.31170E-002
  1.84000E+001	  4.74149E-002
  2.04480E+001	  4.03059E-002
  2.24960E+001	  3.67708E-002
  2.45440E+001	  3.46918E-002
  2.65920E+001	  3.33467E-002
  2.86400E+001	  2.74708E-002
  3.06880E+001	  2.25990E-002
  3.27360E+001	  2.39080E-002
  3.68320E+001	  2.46648E-002
  4.09280E+001	  2.91704E-002
  4.50240E+001	  2.29920E-002
  4.91200E+001	  2.17498E-002
  5.32160E+001	  2.16488E-002
  5.73120E+001	  2.36097E-002
  6.14080E+001	  1.64720E-002
  6.55040E+001	  1.66860E-002
  7.36960E+001	  1.62730E-002
  8.18880E+001	  2.13188E-002
  9.00800E+001	  2.30422E-002
  9.82720E+001	  1.87967E-002
  1.06464E+002	  1.27500E-002
  1.14656E+002	  1.83413E-002
  1.22848E+002	  1.73760E-002
  1.31040E+002	  1.90302E-002
  1.47424E+002	  1.66729E-002
  1.63808E+002	  7.10993E-003
  1.80192E+002	  1.20870E-002
  1.96576E+002	  1.34208E-002
  2.12960E+002	  1.17113E-002
  2.29344E+002	  1.28716E-002
  2.45728E+002	  1.77467E-002
  2.62112E+002	  2.03795E-002
  2.94880E+002	  1.02862E-002
  3.27648E+002	  2.77573E-003
  3.60416E+002	  8.07752E-003
  3.93184E+002	  1.29829E-002
  4.25952E+002	  1.36802E-002
  4.58720E+002	  1.82055E-003
  4.91488E+002	  1.50437E-002
  5.24256E+002	  1.25388E-002
  5.89792E+002	  5.09012E-003
  6.55328E+002	  3.11995E-003
  7.20864E+002	 -3.66577E-003
  7.86400E+002	  6.02483E-003
  8.51936E+002	  1.09236E-003
  9.17472E+002	  3.77034E-003
  9.83008E+002	 -3.30218E-003
  1.04854E+003	 -9.49129E-004
  1.17962E+003	 -4.98138E-003
  1.31069E+003	  1.28581E-003
  1.44176E+003	  1.40765E-003
  1.57283E+003	  3.25562E-003
  1.70390E+003	  5.95088E-003
  1.83498E+003	  3.39068E-003
  1.96605E+003	  2.15034E-003
  2.09712E+003	  1.09488E-003
  2.35926E+003	  8.90717E-004
  2.62141E+003	 -1.68693E-004
  2.88355E+003	  1.36092E-003
  3.14570E+003	  1.59523E-003
  3.40784E+003	  4.12022E-003
  3.66998E+003	  2.11911E-003
  3.93213E+003	  4.66127E-004
  4.19427E+003	 -4.24790E-004
  4.71856E+003	  2.99932E-004
  5.24285E+003	  1.89705E-003
  5.76714E+003	  1.87424E-003
  6.29142E+003	  1.75668E-003
  6.81571E+003	 -3.07936E-003
  7.34000E+003	 -6.01213E-003
  7.86429E+003	 -2.96754E-003
  8.38858E+003	 -2.59511E-003
  9.43715E+003	 -4.23275E-003
  1.04857E+004	 -1.95794E-003
  1.15343E+004	  3.60964E-003
  1.25829E+004	 -1.78493E-003
  1.36315E+004	 -2.91516E-003
  1.46800E+004	 -4.88164E-003
  1.57286E+004	 -4.44150E-003

"Count Rate"
       0.23438	      44.72763
       0.46875	      35.02818
       0.70313	      40.84273
       0.93750	      30.19980
       1.17188	      48.74061
       1.40625	      51.17828
       1.64063	      56.36527
       1.87500	      39.53210
       2.10938	      39.54065
       2.34375	      30.84017
       2.57813	      40.63781
       2.81250	      41.56421
       3.04688	      49.64566
       3.28125	      42.18323
       3.51563	      40.97507
       3.75000	      38.22575
       3.98438	      28.53911
       4.21875	      38.02510
       4.45313	      31.68545
       4.68750	      40.39020
       4.92188	      48.66376
       5.15625	      35.73258
       5.39063	      44.96243
       5.62500	      41.24829
       5.85938	      34.25547
       6.09375	      39.64310
       6.32813	      48.75769
       6.56250	      33.64071
       6.79688	      33.95236
       7.03125	      37.58965
       7.26563	      52.53159
       7.50000	      38.52459
       7.73438	      80.07172
       7.96875	      49.65847
       8.20313	      45.83760
       8.43750	      31.30123
       8.67188	      29.28620
       8.90625	      34.34939
       9.14063	      29.91376
       9.37500	      36.25342
       9.60938	      26.89549
       9.84375	      46.62312
      10.07813	      29.32036
      10.31250	      34.34939
      10.54688	      32.73993
      10.78125	      32.51793
      11.01563	      34.83180
      11.25000	      35.75820
      11.48438	      44.73617
      11.71875	      36.86817
      11.95313	      49.31267
      12.18750	      32.99181
      12.42188	      44.65079
      12.65625	      39.90779
      12.89063	      41.46602
      13.12500	      45.04782
      13.35938	      44.06165
      13.59375	      41.77766
      13.82813	      36.29184
      14.06250	      33.72609
      14.29688	      31.81779
      14.53125	      30.81882
      14.76563	      41.57702
      15.00000	      34.25547
      15.23438	      44.51844
      15.46875	      36.42418
      15.70313	      36.94075
      15.93750	      47.02869
      16.17188	      46.30294
      16.40625	      56.65130
      16.64063	      35.30567
      16.87500	      47.45134
      17.10938	      37.40181
      17.34375	      35.45936
      17.57813	      35.29286
      17.81250	      32.87227
      18.04688	      30.89140
      18.28125	      27.45902
      18.51563	      34.73788
      18.75000	      40.78296
      18.98438	      44.03176
      19.21875	      42.00393
      19.45313	      57.69297
      19.68750	      45.64122
      19.92188	      43.11390
      20.15625	      41.49590
      20.39063	      39.10519
      20.62500	      36.32172
      20.85938	      30.69501
      21.09375	      36.93221
      21.32813	      33.17965
      21.56250	      32.91923
      21.79688	      29.41428
      22.03125	      39.49368
      22.26563	      35.13491
      22.50000	      30.16564
      22.73438	      26.57958
      22.96875	      38.37517
      23.20313	      36.88098
      23.43750	      34.00359
      23.67188	      37.11578
      23.90625	      33.86271
      24.14063	      32.73566
      24.37500	      36.12961
      24.60938	      39.88218
      24.84375	      47.39584
      25.07813	      43.64327
      25.31250	      29.01725
      25.54688	      32.49659
      25.78125	      30.22968
      26.01563	      38.08914
      26.25000	      32.86373
      26.48438	      41.76059
      26.71875	      31.53603
      26.95313	      38.16172
      27.18750	      31.32685
      27.42188	      31.61715
      27.65625	      41.72644
      27.89063	      32.98326
      28.12500	      25.23053
      28.35938	      35.68135
      28.59375	      49.75239
      28.82813	      32.25325
      29.06250	      31.60861
      29.29688	      32.68443
      29.53125	      33.24795
      29.76563	      35.03672
      30.00000	      41.12022
      30.23438	      42.40523
      30.46875	      40.22797
      30.70313	      39.01127
      30.93750	      44.22387
      31.17188	      41.37210
      31.40625	      35.54901
      31.64063	      39.57480
      31.87500	      30.92982
      32.10938	      34.69519
      32.34375	      37.92265
      32.57813	      32.19775
      32.81250	      30.42606
      33.04688	      39.40403
      33.28125	      39.29730
      33.51563	      37.72626
      33.75000	      40.74454
      33.98438	      35.85639
      34.21875	      26.44724
      34.45313	      29.03432
      34.68750	      36.14669
      34.92188	      32.33863
      35.15625	      38.48617
      35.39063	      30.57121
      35.62500	      45.91445
      35.85938	      41.63251
      36.09375	      48.24539
      36.32813	      33.25222
      36.56250	      31.77083
      36.79688	      38.21722
      37.03125	      42.10212
      37.26563	      46.33709
      37.50000	      31.21158
      37.73438	      36.43272
      37.96875	      34.92145
      38.20313	      36.11681
      38.43750	      39.08812
      38.67188	      36.71448
      38.90625	      39.04116
      39.14063	      46.90488
      39.37500	      33.05157
      39.60938	      37.14993
      39.84375	      53.02681
      40.07813	      43.99334
      40.31250	      60.04099
      40.54688	      46.24744
      40.78125	      31.28842
      41.01563	      37.02613
      41.25000	      56.55311
      41.48438	      36.15096
      41.71875	      63.74232
      41.95313	      86.35588
      42.18750	      64.31011
      42.42188	      39.01554
      42.65625	      36.12961
      42.89063	      35.61732
      43.12500	      39.03689
      43.35938	      37.42743
      43.59375	      39.50649
      43.82813	      40.98361
      44.06250	      39.25888
      44.29688	      38.90881
      44.53125	      36.11681
      44.76563	      47.10980
      45.00000	      38.05926
      45.23438	      28.89344
      45.46875	      44.57394
      45.70313	      37.26093
      45.93750	      36.50529
      46.17188	      33.67060
      46.40625	      44.31779
      46.64063	      30.92555
      46.87500	      39.81387
      47.10938	      39.65591
      47.34375	      40.17247
      47.57813	      29.99915
      47.81250	      62.22678
      48.04688	      45.85041
      48.28125	      33.67487
      48.51563	      30.94689
      48.75000	      35.65147
      48.98438	      35.55328
      49.21875	      29.08129
      49.45313	      31.24573
      49.68750	      35.07941
      49.92188	      40.81711
      50.15625	      28.52630
      50.39063	      38.65266
      50.62500	      29.29474
      50.85938	      35.82224
      51.09375	      36.54799
      51.32813	      44.54833
      51.56250	      45.91872
      51.79688	      44.44160
      52.03125	      35.46790
      52.26563	      35.27152
      52.50000	      33.90113
      52.73438	      25.07258
      52.96875	      31.71960
      53.20313	      30.88286
      53.43750	      46.13218
      53.67188	      39.06677
      53.90625	      37.78176
      54.14063	      31.95868
      54.37500	      32.35997
      54.60938	      30.35775
      54.84375	      30.12722
      55.07813	      39.80533
      55.31250	      31.64276
      55.54688	      28.09939
      55.78125	      37.35058
      56.01563	      37.48719
      56.25000	      34.20850
      56.48438	      33.23088
      56.71875	      30.94263
      56.95313	      35.29713
      57.18750	      41.04765
      57.42188	      37.10724
      57.65625	      45.18016
      57.89063	      38.06779
      58.12500	      35.78808
      58.35938	      34.99829
      58.59375	      32.83385
      58.82813	      39.61322
      59.06250	      32.90215
      59.29688	      34.45185
      59.53125	      35.80089
      59.76563	      42.67845

Monitor Diode	1127669.26

"Cumulant 1.Order"
FluctuationFreq. [1/ms]	 1.6745E-001
DiffCoefficient [µm²/s]	 6.7644E-001
Hydrodyn. Radius [nm]	 3.0807E+002

"Cumulant 2.Order"
FluctuationFreq. [1/ms]	 2.4087E-001
DiffCoefficient [µm²/s]	 9.7301E-001
Hydrodyn. Radius [nm]	 2.1417E+002
Expansion Parameter µ2	 2.8960E-002

"Cumulant 3.Order"
FluctuationFreq. [1/ms]	 2.7268E-001
DiffCoefficient [µm²/s]	 1.1015E+000
Hydrodyn. Radius [nm]	 1.8918E+002
Expansion Parameter µ2	 6.3061E-002
Expansion Parameter µ3	 1.0833E-002

"StandardDeviation"
  1.25000E-004	  1.85225E-002
  2.50000E-004	  1.85223E-002
  3.75000E-004	  1.85230E-002
  5.00000E-004	  1.85237E-002
  6.25000E-004	  1.85225E-002
  7.50000E-004	  1.85234E-002
  8.75000E-004	  1.85226E-002
  1.00000E-003	  1.85231E-002
  1.12500E-003	  1.85068E-002
  1.25000E-003	  1.84607E-002
  1.37500E-003	  1.84964E-002
  1.50000E-003	  1.85224E-002
  1.62500E-003	  1.84098E-002
  1.75000E-003	  1.84480E-002
  1.87500E-003	  1.83732E-002
  2.00000E-003	  1.59147E-002
  2.25000E-003	  1.59538E-002
  2.50000E-003	  1.59380E-002
  2.75000E-003	  1.58980E-002
  3.00000E-003	  1.59364E-002
  3.25000E-003	  1.59810E-002
  3.50000E-003	  1.59112E-002
  3.75000E-003	  1.58975E-002
  4.00000E-003	  1.45118E-002
  4.50000E-003	  1.45121E-002
  5.00000E-003	  1.45382E-002
  5.50000E-003	  1.45289E-002
  6.00000E-003	  1.45193E-002
  6.50000E-003	  1.45176E-002
  7.00000E-003	  1.45308E-002
  7.50000E-003	  1.45243E-002
  8.00000E-003	  1.37781E-002
  9.00000E-003	  1.37750E-002
  1.00000E-002	  1.37767E-002
  1.10000E-002	  1.37664E-002
  1.20000E-002	  1.37661E-002
  1.30000E-002	  1.37729E-002
  1.40000E-002	  1.37733E-002
  1.50000E-002	  1.37680E-002
  1.60000E-002	  1.33797E-002
  1.80000E-002	  1.33729E-002
  2.00000E-002	  1.33728E-002
  2.20000E-002	  1.33743E-002
  2.40000E-002	  1.33760E-002
  2.60000E-002	  1.33691E-002
  2.80000E-002	  1.33672E-002
  3.00000E-002	  1.33649E-002
  3.20000E-002	  1.31684E-002
  3.60000E-002	  1.31640E-002
  4.00000E-002	  1.31607E-002
  4.40000E-002	  1.31580E-002
  4.80000E-002	  1.31607E-002
  5.20000E-002	  1.31576E-002
  5.60000E-002	  1.31537E-002
  6.00000E-002	  1.31555E-002
  6.40000E-002	  1.30519E-002
  7.20000E-002	  1.30451E-002
  8.00000E-002	  1.30438E-002
  8.80000E-002	  1.30425E-002
  9.60000E-002	  1.30405E-002
  1.04000E-001	  1.30397E-002
  1.12000E-001	  1.30389E-002
  1.20000E-001	  1.30387E-002
  1.28000E-001	  1.29878E-002
  1.44000E-001	  1.29793E-002
  1.60000E-001	  1.29805E-002
  1.76000E-001	  1.29826E-002
  1.92000E-001	  1.29871E-002
  2.08000E-001	  1.29916E-002
  2.24000E-001	  1.29941E-002
  2.40000E-001	  1.29997E-002
  2.56000E-001	  1.29760E-002
  2.88000E-001	  1.29745E-002
  3.20000E-001	  1.29894E-002
  3.52000E-001	  1.30082E-002
  3.84000E-001	  1.30289E-002
  4.16000E-001	  1.30492E-002
  4.48000E-001	  1.30676E-002
  4.80000E-001	  1.30907E-002
  5.12000E-001	  1.30908E-002
  5.76000E-001	  1.31138E-002
  6.40000E-001	  1.31582E-002
  7.04000E-001	  1.32011E-002
  7.68000E-001	  1.32418E-002
  8.32000E-001	  1.32787E-002
  8.96000E-001	  1.33189E-002
  9.60000E-001	  1.33513E-002
  1.02400E+000	  1.33965E-002
  1.15200E+000	  1.34313E-002
  1.28000E+000	  1.34817E-002
  1.40800E+000	  1.35231E-002
  1.53600E+000	  1.35596E-002
  1.66400E+000	  1.35823E-002
  1.79200E+000	  1.35997E-002
  1.92000E+000	  1.36000E-002
  2.01600E+000	  1.35670E-002
  2.27200E+000	  1.35287E-002
  2.52800E+000	  1.34966E-002
  2.78400E+000	  1.34470E-002
  3.04000E+000	  1.33838E-002
  3.29600E+000	  1.33138E-002
  3.55200E+000	  1.32319E-002
  3.80800E+000	  1.31480E-002
  4.06400E+000	  1.30570E-002
  4.57600E+000	  1.28541E-002
  5.08800E+000	  1.26595E-002
  5.60000E+000	  1.24625E-002
  6.11200E+000	  1.22721E-002
  6.62400E+000	  1.20894E-002
  7.13600E+000	  1.19046E-002
  7.64800E+000	  1.17447E-002
  8.16000E+000	  1.15370E-002
  9.18400E+000	  1.11983E-002
  1.02080E+001	  1.09033E-002
  1.12320E+001	  1.06948E-002
  1.22560E+001	  1.05048E-002
  1.32800E+001	  1.03769E-002
  1.43040E+001	  1.02625E-002
  1.53280E+001	  1.01734E-002
  1.63520E+001	  1.00415E-002
  1.84000E+001	  9.72096E-003
  2.04480E+001	  9.46306E-003
  2.24960E+001	  9.30983E-003
  2.45440E+001	  9.19775E-003
  2.65920E+001	  9.10528E-003
  2.86400E+001	  8.84839E-003
  3.06880E+001	  8.58796E-003
  3.27360E+001	  8.44149E-003
  3.68320E+001	  8.47848E-003
  4.09280E+001	  8.71385E-003
  4.50240E+001	  8.47377E-003
  4.91200E+001	  8.38367E-003
  5.32160E+001	  8.25406E-003
  5.73120E+001	  8.33690E-003
  6.14080E+001	  8.02528E-003
  6.55040E+001	  7.78848E-003
  7.36960E+001	  7.70648E-003
  8.18880E+001	  7.89120E-003
  9.00800E+001	  7.97987E-003
  9.82720E+001	  7.75507E-003
  1.06464E+002	  7.36601E-003
  1.14656E+002	  7.71533E-003
  1.22848E+002	  7.73805E-003
  1.31040E+002	  7.56371E-003
  1.47424E+002	  7.18461E-003
  1.63808E+002	  6.35555E-003
  1.80192E+002	  6.75316E-003
  1.96576E+002	  6.91325E-003
  2.12960E+002	  6.76114E-003
  2.29344E+002	  6.65936E-003
  2.45728E+002	  7.17049E-003
