ALV-6000/E-WIN Data
Date :	"11/7/2025"
Time :	"12:58:23 PM"
Samplename : 	"NaCl - 0.085 micrometer"
SampMemo(0) : 	""
SampMemo(1) : 	""
SampMemo(2) : 	""
SampMemo(3) : 	""
SampMemo(4) : 	""
SampMemo(5) : 	""
SampMemo(6) : 	""
SampMemo(7) : 	""
SampMemo(8) : 	""
SampMemo(9) : 	""
Temperature [K] :	     292.03844
Viscosity [cp]  :	       1.02952
Refractive Index:	       1.33200
Wavelength [nm] :	     632.80000
Angle [°]       :	      99.99900
Duration [s]    :	        20
Runs            :	         1
Mode            :	"SINGLE AUTO CH0 "
MeanCR0 [kHz]   :	     206.25922
MeanCR1 [kHz]   :	       0.00000

"Correlation"
  1.25000E-004	  6.68006E+000
  2.50000E-004	  8.62626E+000
  3.75000E-004	  8.58549E+000
  5.00000E-004	  8.57372E+000
  6.25000E-004	  8.55165E+000
  7.50000E-004	  8.54054E+000
  8.75000E-004	  8.53468E+000
  1.00000E-003	  8.48102E+000
  1.12500E-003	  8.52367E+000
  1.25000E-003	  8.49312E+000
  1.37500E-003	  8.48515E+000
  1.50000E-003	  8.47715E+000
  1.62500E-003	  8.48040E+000
  1.75000E-003	  8.46066E+000
  1.87500E-003	  8.47280E+000
  2.00000E-003	  8.47629E+000
  2.25000E-003	  8.43937E+000
  2.50000E-003	  8.43741E+000
  2.75000E-003	  8.43434E+000
  3.00000E-003	  8.43090E+000
  3.25000E-003	  8.41712E+000
  3.50000E-003	  8.41962E+000
  3.75000E-003	  8.40532E+000
  4.00000E-003	  8.37805E+000
  4.50000E-003	  8.38294E+000
  5.00000E-003	  8.36511E+000
  5.50000E-003	  8.33716E+000
  6.00000E-003	  8.33215E+000
  6.50000E-003	  8.30746E+000
  7.00000E-003	  8.30392E+000
  7.50000E-003	  8.28179E+000
  8.00000E-003	  8.26062E+000
  9.00000E-003	  8.23025E+000
  1.00000E-002	  8.19296E+000
  1.10000E-002	  8.16662E+000
  1.20000E-002	  8.13495E+000
  1.30000E-002	  8.11246E+000
  1.40000E-002	  8.06260E+000
  1.50000E-002	  8.04191E+000
  1.60000E-002	  8.01224E+000
  1.80000E-002	  7.94514E+000
  2.00000E-002	  7.88743E+000
  2.20000E-002	  7.82248E+000
  2.40000E-002	  7.75988E+000
  2.60000E-002	  7.69971E+000
  2.80000E-002	  7.63851E+000
  3.00000E-002	  7.57894E+000
  3.20000E-002	  7.52518E+000
  3.60000E-002	  7.40731E+000
  4.00000E-002	  7.29162E+000
  4.40000E-002	  7.17593E+000
  4.80000E-002	  7.06598E+000
  5.20000E-002	  6.95345E+000
  5.60000E-002	  6.84492E+000
  6.00000E-002	  6.73858E+000
  6.40000E-002	  6.63595E+000
  7.20000E-002	  6.42899E+000
  8.00000E-002	  6.23361E+000
  8.80000E-002	  6.04146E+000
  9.60000E-002	  5.85801E+000
  1.04000E-001	  5.67692E+000
  1.12000E-001	  5.50140E+000
  1.20000E-001	  5.33223E+000
  1.28000E-001	  5.17089E+000
  1.44000E-001	  4.85898E+000
  1.60000E-001	  4.56796E+000
  1.76000E-001	  4.29162E+000
  1.92000E-001	  4.03329E+000
  2.08000E-001	  3.79376E+000
  2.24000E-001	  3.56406E+000
  2.40000E-001	  3.35206E+000
  2.56000E-001	  3.15268E+000
  2.88000E-001	  2.78835E+000
  3.20000E-001	  2.46319E+000
  3.52000E-001	  2.17941E+000
  3.84000E-001	  1.92806E+000
  4.16000E-001	  1.70745E+000
  4.48000E-001	  1.51236E+000
  4.80000E-001	  1.33815E+000
  5.12000E-001	  1.18859E+000
  5.76000E-001	  9.31095E-001
  6.40000E-001	  7.30554E-001
  7.04000E-001	  5.76000E-001
  7.68000E-001	  4.57281E-001
  8.32000E-001	  3.63482E-001
  8.96000E-001	  2.85642E-001
  9.60000E-001	  2.25764E-001
  1.02400E+000	  1.79201E-001
  1.15200E+000	  1.10102E-001
  1.28000E+000	  6.27955E-002
  1.40800E+000	  3.44535E-002
  1.53600E+000	  2.34924E-002
  1.66400E+000	  1.81042E-002
  1.79200E+000	  1.22959E-002
  1.92000E+000	  7.52160E-003
  2.01600E+000	  1.67302E-003
  2.27200E+000	 -1.76085E-003
  2.52800E+000	 -1.77990E-003
  2.78400E+000	  6.34759E-004
  3.04000E+000	 -5.46814E-003
  3.29600E+000	 -7.52587E-004
  3.55200E+000	  4.68637E-003
  3.80800E+000	  1.34701E-002
  4.06400E+000	  7.87970E-003
  4.57600E+000	  4.96636E-004
  5.08800E+000	  4.64160E-004
  5.60000E+000	  6.59671E-003
  6.11200E+000	  4.73094E-003
  6.62400E+000	  5.85113E-003
  7.13600E+000	  5.43801E-003
  7.64800E+000	 -3.95735E-003
  8.16000E+000	 -1.15415E-003
  9.18400E+000	 -9.76173E-003
  1.02080E+001	  1.68342E-004
  1.12320E+001	  5.71099E-003
  1.22560E+001	  6.64040E-003
  1.32800E+001	  5.79216E-003
  1.43040E+001	 -9.78542E-003
  1.53280E+001	 -7.60131E-003
  1.63520E+001	 -3.91096E-003
  1.84000E+001	 -3.86820E-003
  2.04480E+001	 -7.15727E-003
  2.24960E+001	 -3.91606E-003
  2.45440E+001	  9.06323E-004
  2.65920E+001	 -1.71059E-003
  2.86400E+001	  2.45567E-003
  3.06880E+001	  1.71316E-003
  3.27360E+001	  2.81167E-003
  3.68320E+001	 -1.65608E-003
  4.09280E+001	  2.54900E-003
  4.50240E+001	  2.24676E-003
  4.91200E+001	 -9.94180E-004
  5.32160E+001	  1.77121E-003
  5.73120E+001	  2.35093E-003
  6.14080E+001	 -1.39820E-003
  6.55040E+001	 -3.35832E-003
  7.36960E+001	 -3.44787E-003
  8.18880E+001	 -1.04668E-003
  9.00800E+001	 -1.01548E-003
  9.82720E+001	  5.30351E-003
  1.06464E+002	  9.60577E-004
  1.14656E+002	 -4.51012E-003
  1.22848E+002	  4.07377E-003
  1.31040E+002	 -4.99234E-004
  1.47424E+002	  7.16854E-004
  1.63808E+002	 -5.92362E-004
  1.80192E+002	  1.69884E-003
  1.96576E+002	  1.78233E-003
  2.12960E+002	  9.05036E-004
  2.29344E+002	 -1.02897E-002
  2.45728E+002	  4.32763E-003
  2.62112E+002	  1.72772E-003
  2.94880E+002	 -2.56450E-003
  3.27648E+002	 -2.78583E-003
  3.60416E+002	 -2.55156E-003
  3.93184E+002	  1.04195E-003
  4.25952E+002	  1.63646E-003
  4.58720E+002	 -1.84362E-003
  4.91488E+002	 -1.91031E-003
  5.24256E+002	 -5.58946E-005
  5.89792E+002	 -1.46681E-005
  6.55328E+002	 -3.96633E-004
  7.20864E+002	  1.61313E-003
  7.86400E+002	 -1.19059E-003
  8.51936E+002	 -1.50712E-004
  9.17472E+002	 -7.41191E-004
  9.83008E+002	 -2.22007E-004
  1.04854E+003	 -7.87624E-005
  1.17962E+003	  1.27417E-003
  1.31069E+003	  1.47448E-003
  1.44176E+003	 -8.69623E-004
  1.57283E+003	 -3.97591E-004
  1.70390E+003	  1.13719E-005
  1.83498E+003	  1.12404E-003
  1.96605E+003	 -8.02204E-004
  2.09712E+003	 -9.20887E-004
  2.35926E+003	  7.37591E-004
  2.62141E+003	 -2.24694E-004
  2.88355E+003	 -1.23052E-003
  3.14570E+003	  6.13862E-004
  3.40784E+003	  1.50169E-004
  3.66998E+003	 -1.29758E-004
  3.93213E+003	 -2.12438E-003
  4.19427E+003	 -2.60654E-004
  4.71856E+003	  7.73476E-004
  5.24285E+003	 -1.86225E-003
  5.76714E+003	  3.18183E-004
  6.29142E+003	  2.22656E-004
  6.81571E+003	  2.60628E-004
  7.34000E+003	  3.68672E-005
  7.86429E+003	  1.92225E-004

"Count Rate"
       0.07813	     198.91136
       0.15625	     194.31352
       0.23438	     204.03432
       0.31250	     217.90471
       0.39063	     211.18083
       0.46875	     202.63832
       0.54688	     198.79610
       0.62500	     190.89395
       0.70313	     205.08452
       0.78125	     219.46721
       0.85938	     208.40163
       0.93750	     207.64600
       1.01563	     224.85912
       1.09375	     219.99231
       1.17188	     216.90573
       1.25000	     188.96004
       1.32813	     182.22336
       1.40625	     199.43646
       1.48438	     217.26434
       1.56250	     240.49692
       1.64063	     227.99692
       1.71875	     191.53432
       1.79688	     204.62346
       1.87500	     195.50461
       1.95313	     205.25102
       2.03125	     210.10501
       2.10938	     209.81044
       2.18750	     209.45184
       2.26563	     188.92162
       2.34375	     193.94211
       2.42188	     184.40060
       2.50000	     201.08862
       2.57813	     213.05070
       2.65625	     206.98001
       2.73438	     250.47386
       2.81250	     225.76843
       2.89063	     225.01280
       2.96875	     212.90984
       3.04688	     193.13524
       3.12500	     196.82376
       3.20313	     206.30122
       3.28125	     201.25511
       3.35938	     214.28021
       3.43750	     204.41853
       3.51563	     198.34784
       3.59375	     227.92007
       3.67188	     206.17316
       3.75000	     196.99026
       3.82813	     212.47438
       3.90625	     207.63319
       3.98438	     191.45747
       4.06250	     215.84271
       4.14063	     190.12550
       4.21875	     196.63165
       4.29688	     195.70952
       4.37500	     209.13165
       4.45313	     197.86116
       4.53125	     198.75768
       4.60938	     190.63780
       4.68750	     209.84886
       4.76563	     208.91393
       4.84375	     226.08862
       4.92188	     210.20747
       5.00000	     236.56505
       5.07813	     204.71310
       5.15625	     231.98001
       5.23438	     210.29712
       5.31250	     211.06557
       5.39063	     203.54764
       5.46875	     197.55379
       5.54688	     188.16599
       5.62500	     232.35143
       5.70313	     188.48616
       5.78125	     217.69978
       5.85938	     213.71669
       5.93750	     194.09579
       6.01563	     201.97234
       6.09375	     212.24385
       6.17188	     233.77304
       6.25000	     211.50102
       6.32813	     182.09528
       6.40625	     204.45695
       6.48438	     187.26945
       6.56250	     222.87396
       6.64063	     198.70645
       6.71875	     222.59221
       6.79688	     212.74333
       6.87500	     199.70543
       6.95313	     202.63832
       7.03125	     183.55533
       7.10938	     214.33145
       7.18750	     225.96054
       7.26563	     203.94467
       7.34375	     203.59886
       7.42188	     194.99231
       7.50000	     195.78636
       7.57813	     193.32735
       7.65625	     215.49692
       7.73438	     221.01691
       7.81250	     209.74641
       7.89063	     221.83658
       7.96875	     191.89293
       8.04688	     203.94467
       8.12500	     183.52971
       8.20313	     207.67162
       8.28125	     189.69006
       8.35938	     202.67674
       8.43750	     218.58350
       8.51563	     222.75870
       8.59375	     213.16599
       8.67188	     212.73053
       8.75000	     233.05583
       8.82813	     204.89241
       8.90625	     204.22643
       8.98438	     184.13165
       9.06250	     214.26741
       9.14063	     222.59221
       9.21875	     222.07991
       9.29688	     177.42059
       9.37500	     199.00102
       9.45313	     205.57120
       9.53125	     209.56711
       9.60938	     203.71413
       9.68750	     213.99846
       9.76563	     218.17366
       9.84375	     209.17007
       9.92188	     206.82632
      10.00000	     177.30533
      10.07813	     185.77100
      10.15625	     207.10809
      10.23438	     195.97849
      10.31250	     198.06609
      10.39063	     214.58760
      10.46875	     191.61116
      10.54688	     198.79610
      10.62500	     197.16957
      10.70313	     185.04099
      10.78125	     227.42059
      10.85938	     196.59323
      10.93750	     178.34273
      11.01563	     194.54405
      11.09375	     189.79251
      11.17188	     198.41188
      11.25000	     185.16905
      11.32813	     208.01741
      11.40625	     195.85040
      11.48438	     201.29353
      11.56250	     213.72951
      11.64063	     212.98668
      11.71875	     200.80685
      11.79688	     212.83299
      11.87500	     207.54353
      11.95313	     184.96413
      12.03125	     201.39600
      12.10938	     189.08810
      12.18750	     221.72130
      12.26563	     194.77458
      12.34375	     206.05788
      12.42188	     196.73412
      12.50000	     208.69620
      12.57813	     220.24846
      12.65625	     203.95747
      12.73438	     207.32582
      12.81250	     183.69620
      12.89063	     213.46054
      12.96875	     223.80891
      13.04688	     192.41803
      13.12500	     190.42007
      13.20313	     196.00409
      13.28125	     195.47899
      13.35938	     208.46567
      13.43750	     182.44109
      13.51563	     214.85655
      13.59375	     232.87653
      13.67188	     196.58043
      13.75000	     199.37244
      13.82813	     178.54764
      13.90625	     244.32632
      13.98438	     206.53175
      14.06250	     174.80789
      14.14063	     221.63165
      14.21875	     239.56198
      14.29688	     213.35809
      14.37500	     207.26178
      14.45313	     204.67468
      14.53125	     211.94928
      14.60938	     223.92418
      14.68750	     230.03329
      14.76563	     174.89754
      14.84375	     180.95543
      14.92188	     214.26741
      15.00000	     202.42059
      15.07813	     199.19313
      15.15625	     222.40010
      15.23438	     205.82735
      15.31250	     196.14497
      15.39063	     227.79201
      15.46875	     211.07837
      15.54688	     213.01228
      15.62500	     207.33862
      15.70313	     209.59271
      15.78125	     210.11783
      15.85938	     213.99846
      15.93750	     226.83145
      16.01563	     239.85655
      16.09375	     219.80020
      16.17188	     176.19109
      16.25000	     216.41905
      16.32813	     213.11475
      16.40625	     218.53227
      16.48438	     208.15829
      16.56250	     203.52202
      16.64063	     210.86066
      16.71875	     199.53893
      16.79688	     195.97849
      16.87500	     204.99487
      16.95313	     224.11629
      17.03125	     184.06761
      17.10938	     209.18288
      17.18750	     231.94159
      17.26563	     200.35860
      17.34375	     212.60245
      17.42188	     227.95850
      17.50000	     254.16238
      17.57813	     187.56403
      17.65625	     211.76997
      17.73438	     215.97079
      17.81250	     205.86577
      17.89063	     158.70901
      17.96875	     184.59273
      18.04688	     232.40266
      18.12500	     196.28586
      18.20313	     217.41803
      18.28125	     205.72488
      18.35938	     225.67879
      18.43750	     194.48001
      18.51563	     206.67264
      18.59375	     220.33810
      18.67188	     214.62602
      18.75000	     201.03740
      18.82813	     198.09169
      18.90625	     205.87859
      18.98438	     214.54918
      19.06250	     194.35194
      19.14063	     212.33350
      19.21875	     209.90010
      19.29688	     216.82889
      19.37500	     215.61218
      19.45313	     191.13728
      19.53125	     184.28534
      19.60938	     216.84169
      19.68750	     189.80533
      19.76563	     194.90266
      19.84375	     210.65573
      19.92188	     208.68340

Monitor Diode	  80136.88

"Cumulant 1.Order"
FluctuationFreq. [1/ms]	 1.9444E+000
DiffCoefficient [µm²/s]	 4.7358E+000
Hydrodyn. Radius [nm]	 4.3852E+001

"Cumulant 2.Order"
FluctuationFreq. [1/ms]	 1.9623E+000
DiffCoefficient [µm²/s]	 4.7794E+000
Hydrodyn. Radius [nm]	 4.3452E+001
Expansion Parameter µ2	 1.0249E-001

"Cumulant 3.Order"
FluctuationFreq. [1/ms]	 1.9644E+000
DiffCoefficient [µm²/s]	 4.7844E+000
Hydrodyn. Radius [nm]	 4.3407E+001
Expansion Parameter µ2	 1.3230E-001
Expansion Parameter µ3	 1.3618E-001

"StandardDeviation"
  1.25000E-004	  7.28453E-003
  2.50000E-004	  7.28623E-003
  3.75000E-004	  7.28765E-003
  5.00000E-004	  7.28936E-003
  6.25000E-004	  7.29148E-003
  7.50000E-004	  7.29382E-003
  8.75000E-004	  7.29492E-003
  1.00000E-003	  7.29709E-003
  1.12500E-003	  7.29300E-003
  1.25000E-003	  7.29050E-003
  1.37500E-003	  7.28462E-003
  1.50000E-003	  7.28176E-003
  1.62500E-003	  7.28328E-003
  1.75000E-003	  7.28662E-003
  1.87500E-003	  7.27753E-003
  2.00000E-003	  6.66104E-003
  2.25000E-003	  6.66067E-003
  2.50000E-003	  6.66181E-003
  2.75000E-003	  6.66046E-003
  3.00000E-003	  6.65973E-003
  3.25000E-003	  6.66055E-003
  3.50000E-003	  6.65920E-003
  3.75000E-003	  6.65833E-003
  4.00000E-003	  6.32641E-003
  4.50000E-003	  6.32378E-003
  5.00000E-003	  6.32322E-003
  5.50000E-003	  6.32261E-003
  6.00000E-003	  6.32218E-003
  6.50000E-003	  6.32144E-003
  7.00000E-003	  6.32052E-003
  7.50000E-003	  6.32043E-003
  8.00000E-003	  6.14583E-003
  9.00000E-003	  6.14107E-003
  1.00000E-002	  6.14013E-003
  1.10000E-002	  6.13888E-003
  1.20000E-002	  6.13784E-003
  1.30000E-002	  6.13607E-003
  1.40000E-002	  6.13512E-003
  1.50000E-002	  6.13339E-003
  1.60000E-002	  6.04392E-003
  1.80000E-002	  6.03533E-003
  2.00000E-002	  6.03285E-003
  2.20000E-002	  6.03017E-003
  2.40000E-002	  6.02606E-003
  2.60000E-002	  6.02417E-003
  2.80000E-002	  6.02096E-003
  3.00000E-002	  6.01751E-003
  3.20000E-002	  5.96871E-003
  3.60000E-002	  5.94962E-003
  4.00000E-002	  5.94147E-003
  4.40000E-002	  5.93454E-003
  4.80000E-002	  5.92724E-003
  5.20000E-002	  5.91906E-003
  5.60000E-002	  5.91034E-003
  6.00000E-002	  5.90156E-003
  6.40000E-002	  5.86476E-003
  7.20000E-002	  5.82821E-003
  8.00000E-002	  5.80682E-003
  8.80000E-002	  5.78558E-003
  9.60000E-002	  5.76153E-003
  1.04000E-001	  5.73755E-003
  1.12000E-001	  5.71086E-003
  1.20000E-001	  5.68517E-003
  1.28000E-001	  5.64265E-003
  1.44000E-001	  5.56015E-003
  1.60000E-001	  5.50187E-003
  1.76000E-001	  5.44032E-003
  1.92000E-001	  5.37833E-003
  2.08000E-001	  5.31191E-003
  2.24000E-001	  5.24704E-003
  2.40000E-001	  5.18018E-003
  2.56000E-001	  5.12151E-003
  2.88000E-001	  4.96939E-003
  3.20000E-001	  4.84144E-003
  3.52000E-001	  4.71386E-003
  3.84000E-001	  4.59267E-003
  4.16000E-001	  4.47223E-003
  4.48000E-001	  4.35867E-003
  4.80000E-001	  4.25134E-003
  5.12000E-001	  4.12310E-003
  5.76000E-001	  3.92965E-003
  6.40000E-001	  3.76361E-003
  7.04000E-001	  3.62347E-003
  7.68000E-001	  3.09972E-003
  8.32000E-001	  3.09972E-003
  8.96000E-001	  3.09972E-003
  9.60000E-001	  3.09972E-003
  1.02400E+000	  3.06187E-003
  1.15200E+000	  3.06187E-003
  1.28000E+000	  3.06187E-003
  1.40800E+000	  3.06187E-003
  1.53600E+000	  3.06187E-003
  1.66400E+000	  3.06187E-003
  1.79200E+000	  3.06187E-003
  1.92000E+000	  3.06187E-003
  2.01600E+000	  2.95849E-003
  2.27200E+000	  2.95849E-003
  2.52800E+000	  2.95849E-003
  2.78400E+000	  2.95849E-003
  3.04000E+000	  2.95849E-003
  3.29600E+000	  2.95849E-003
  3.55200E+000	  2.95849E-003
  3.80800E+000	  2.95849E-003
  4.06400E+000	  2.68564E-003
  4.57600E+000	  2.68564E-003
  5.08800E+000	  2.68564E-003
  5.60000E+000	  2.68564E-003
  6.11200E+000	  2.68564E-003
  6.62400E+000	  2.68564E-003
  7.13600E+000	  2.68564E-003
  7.64800E+000	  2.68564E-003
  8.16000E+000	  2.37651E-003
  9.18400E+000	  2.37651E-003
  1.02080E+001	  2.37651E-003
  1.12320E+001	  2.37651E-003
  1.22560E+001	  2.37651E-003
  1.32800E+001	  2.37651E-003
  1.43040E+001	  2.37651E-003
  1.53280E+001	  2.37651E-003
  1.63520E+001	  1.91408E-003
  1.84000E+001	  1.91408E-003
  2.04480E+001	  1.91408E-003
  2.24960E+001	  1.91408E-003
  2.45440E+001	  1.91408E-003
  2.65920E+001	  1.91408E-003
  2.86400E+001	  1.91408E-003
  3.06880E+001	  1.91408E-003
  3.27360E+001	  1.44610E-003
  3.68320E+001	  1.44610E-003
  4.09280E+001	  1.44610E-003
  4.50240E+001	  1.44610E-003
  4.91200E+001	  1.44610E-003
  5.32160E+001	  1.44610E-003
  5.73120E+001	  1.44610E-003
  6.14080E+001	  1.44610E-003
  6.55040E+001	  1.05548E-003
  7.36960E+001	  1.05548E-003
  8.18880E+001	  1.05548E-003
  9.00800E+001	  1.05548E-003
  9.82720E+001	  1.05548E-003
  1.06464E+002	  1.05548E-003
  1.14656E+002	  1.05548E-003
  1.22848E+002	  1.05548E-003
  1.31040E+002	  7.57967E-004
  1.47424E+002	  7.57967E-004
  1.63808E+002	  7.57967E-004
  1.80192E+002	  7.57967E-004
  1.96576E+002	  7.57967E-004
  2.12960E+002	  7.57967E-004
  2.29344E+002	  7.57967E-004
  2.45728E+002	  7.57967E-004
  2.62112E+002	  5.40054E-004
  2.94880E+002	  5.40054E-004
  3.27648E+002	  5.40054E-004
  3.60416E+002	  5.40054E-004
  3.93184E+002	  5.40054E-004
  4.25952E+002	  5.40054E-004
  4.58720E+002	  5.40054E-004
  4.91488E+002	  5.40054E-004
