ALV-6000/E-WIN Data
Date :	"11/7/2025"
Time :	"12:30:02 PM"
Samplename : 	"NaCl - 0.085 micrometer"
SampMemo(0) : 	""
SampMemo(1) : 	""
SampMemo(2) : 	""
SampMemo(3) : 	""
SampMemo(4) : 	""
SampMemo(5) : 	""
SampMemo(6) : 	""
SampMemo(7) : 	""
SampMemo(8) : 	""
SampMemo(9) : 	""
Temperature [K] :	     291.98554
Viscosity [cp]  :	       1.03087
Refractive Index:	       1.33200
Wavelength [nm] :	     632.80000
Angle [°]       :	      74.99900
Duration [s]    :	        20
Runs            :	         1
Mode            :	"SINGLE AUTO CH0 "
MeanCR0 [kHz]   :	     227.63855
MeanCR1 [kHz]   :	       0.00000

"Correlation"
  1.25000E-004	  4.63837E+000
  2.50000E-004	  5.99181E+000
  3.75000E-004	  5.97439E+000
  5.00000E-004	  5.96856E+000
  6.25000E-004	  5.96274E+000
  7.50000E-004	  5.93820E+000
  8.75000E-004	  5.95241E+000
  1.00000E-003	  5.91648E+000
  1.12500E-003	  5.92938E+000
  1.25000E-003	  5.90235E+000
  1.37500E-003	  5.91232E+000
  1.50000E-003	  5.92240E+000
  1.62500E-003	  5.89573E+000
  1.75000E-003	  5.91437E+000
  1.87500E-003	  5.88987E+000
  2.00000E-003	  5.90171E+000
  2.25000E-003	  5.88291E+000
  2.50000E-003	  5.89996E+000
  2.75000E-003	  5.88599E+000
  3.00000E-003	  5.88435E+000
  3.25000E-003	  5.88406E+000
  3.50000E-003	  5.87698E+000
  3.75000E-003	  5.86773E+000
  4.00000E-003	  5.86572E+000
  4.50000E-003	  5.85287E+000
  5.00000E-003	  5.85172E+000
  5.50000E-003	  5.84756E+000
  6.00000E-003	  5.84393E+000
  6.50000E-003	  5.83000E+000
  7.00000E-003	  5.83170E+000
  7.50000E-003	  5.81701E+000
  8.00000E-003	  5.81776E+000
  9.00000E-003	  5.79836E+000
  1.00000E-002	  5.78846E+000
  1.10000E-002	  5.77247E+000
  1.20000E-002	  5.76366E+000
  1.30000E-002	  5.74567E+000
  1.40000E-002	  5.72387E+000
  1.50000E-002	  5.72010E+000
  1.60000E-002	  5.70219E+000
  1.80000E-002	  5.67378E+000
  2.00000E-002	  5.64528E+000
  2.20000E-002	  5.61503E+000
  2.40000E-002	  5.59074E+000
  2.60000E-002	  5.56075E+000
  2.80000E-002	  5.53743E+000
  3.00000E-002	  5.50510E+000
  3.20000E-002	  5.47789E+000
  3.60000E-002	  5.42730E+000
  4.00000E-002	  5.37286E+000
  4.40000E-002	  5.32191E+000
  4.80000E-002	  5.27072E+000
  5.20000E-002	  5.21974E+000
  5.60000E-002	  5.16886E+000
  6.00000E-002	  5.11763E+000
  6.40000E-002	  5.06955E+000
  7.20000E-002	  4.97202E+000
  8.00000E-002	  4.87450E+000
  8.80000E-002	  4.78077E+000
  9.60000E-002	  4.68728E+000
  1.04000E-001	  4.60041E+000
  1.12000E-001	  4.51001E+000
  1.20000E-001	  4.42099E+000
  1.28000E-001	  4.33443E+000
  1.44000E-001	  4.16945E+000
  1.60000E-001	  4.00916E+000
  1.76000E-001	  3.85735E+000
  1.92000E-001	  3.71087E+000
  2.08000E-001	  3.56810E+000
  2.24000E-001	  3.43237E+000
  2.40000E-001	  3.30054E+000
  2.56000E-001	  3.17660E+000
  2.88000E-001	  2.93938E+000
  3.20000E-001	  2.72136E+000
  3.52000E-001	  2.52001E+000
  3.84000E-001	  2.33500E+000
  4.16000E-001	  2.16227E+000
  4.48000E-001	  2.00177E+000
  4.80000E-001	  1.85428E+000
  5.12000E-001	  1.72066E+000
  5.76000E-001	  1.47766E+000
  6.40000E-001	  1.27154E+000
  7.04000E-001	  1.09517E+000
  7.68000E-001	  9.43450E-001
  8.32000E-001	  8.14893E-001
  8.96000E-001	  7.04045E-001
  9.60000E-001	  6.08354E-001
  1.02400E+000	  5.26328E-001
  1.15200E+000	  3.89972E-001
  1.28000E+000	  2.90432E-001
  1.40800E+000	  2.18703E-001
  1.53600E+000	  1.70721E-001
  1.66400E+000	  1.33083E-001
  1.79200E+000	  1.04537E-001
  1.92000E+000	  8.16116E-002
  2.01600E+000	  6.81774E-002
  2.27200E+000	  4.24865E-002
  2.52800E+000	  2.75025E-002
  2.78400E+000	  1.74056E-002
  3.04000E+000	  1.35708E-002
  3.29600E+000	  1.24719E-002
  3.55200E+000	  1.12469E-002
  3.80800E+000	  1.35348E-002
  4.06400E+000	  1.63562E-002
  4.57600E+000	  1.94459E-002
  5.08800E+000	  2.10306E-002
  5.60000E+000	  2.79049E-002
  6.11200E+000	  3.30591E-002
  6.62400E+000	  2.16454E-002
  7.13600E+000	  1.34760E-002
  7.64800E+000	 -5.55879E-004
  8.16000E+000	  2.15505E-003
  9.18400E+000	 -7.10729E-003
  1.02080E+001	 -1.15945E-002
  1.12320E+001	 -3.93705E-003
  1.22560E+001	  2.15787E-003
  1.32800E+001	  1.70244E-002
  1.43040E+001	  1.59864E-002
  1.53280E+001	  4.19052E-003
  1.63520E+001	  2.63736E-003
  1.84000E+001	 -5.23519E-004
  2.04480E+001	 -1.04261E-002
  2.24960E+001	 -9.67791E-003
  2.45440E+001	 -8.99830E-003
  2.65920E+001	 -7.25349E-003
  2.86400E+001	 -7.45543E-003
  3.06880E+001	 -1.31949E-002
  3.27360E+001	 -1.43124E-002
  3.68320E+001	 -1.35781E-003
  4.09280E+001	 -2.13698E-003
  4.50240E+001	 -2.61346E-004
  4.91200E+001	 -5.27048E-003
  5.32160E+001	  3.48419E-003
  5.73120E+001	 -1.41857E-003
  6.14080E+001	 -7.96048E-003
  6.55040E+001	 -4.80906E-004
  7.36960E+001	 -3.22920E-003
  8.18880E+001	 -5.16537E-003
  9.00800E+001	  1.52951E-003
  9.82720E+001	 -8.17782E-003
  1.06464E+002	 -2.76544E-003
  1.14656E+002	 -1.98668E-003
  1.22848E+002	 -4.07960E-003
  1.31040E+002	 -2.05251E-004
  1.47424E+002	  1.48571E-003
  1.63808E+002	  6.24178E-004
  1.80192E+002	 -5.69090E-003
  1.96576E+002	  4.80775E-004
  2.12960E+002	  2.24015E-003
  2.29344E+002	 -3.76903E-003
  2.45728E+002	  4.27793E-003
  2.62112E+002	  9.37371E-004
  2.94880E+002	 -3.09535E-003
  3.27648E+002	 -9.13589E-004
  3.60416E+002	 -3.77543E-003
  3.93184E+002	 -8.66781E-004
  4.25952E+002	  3.48372E-004
  4.58720E+002	  4.40233E-004
  4.91488E+002	 -8.00160E-004
  5.24256E+002	  1.09247E-003
  5.89792E+002	 -5.69735E-004
  6.55328E+002	 -7.29328E-004
  7.20864E+002	 -1.59996E-003
  7.86400E+002	  7.65391E-004
  8.51936E+002	 -6.60048E-004
  9.17472E+002	  1.48634E-003
  9.83008E+002	 -5.61134E-003
  1.04854E+003	 -8.39774E-004
  1.17962E+003	 -1.84374E-003
  1.31069E+003	  4.12866E-004
  1.44176E+003	  6.17037E-004
  1.57283E+003	  1.06758E-003
  1.70390E+003	  3.51544E-004
  1.83498E+003	 -1.06219E-004
  1.96605E+003	 -2.61181E-004
  2.09712E+003	 -1.02973E-003
  2.35926E+003	  1.91016E-004
  2.62141E+003	 -1.23783E-003
  2.88355E+003	  2.24899E-003
  3.14570E+003	 -4.98932E-004
  3.40784E+003	 -1.07535E-003
  3.66998E+003	 -1.33819E-003
  3.93213E+003	  1.87744E-004
  4.19427E+003	 -7.13898E-005
  4.71856E+003	  5.75793E-005
  5.24285E+003	 -7.40424E-004
  5.76714E+003	 -2.90134E-004
  6.29142E+003	 -1.31220E-003
  6.81571E+003	 -1.15930E-003
  7.34000E+003	  1.26309E-004
  7.86429E+003	  2.00194E-004

"Count Rate"
       0.07813	     262.56403
       0.15625	     242.43083
       0.23438	     250.14087
       0.31250	     233.28636
       0.39063	     221.11935
       0.46875	     287.30789
       0.54688	     234.10603
       0.62500	     210.00255
       0.70313	     213.29405
       0.78125	     174.37244
       0.85938	     209.37500
       0.93750	     213.12755
       1.01563	     200.93494
       1.09375	     239.84375
       1.17188	     224.06505
       1.25000	     239.63882
       1.32813	     223.05327
       1.40625	     236.23206
       1.48438	     245.83760
       1.56250	     277.25409
       1.64063	     248.11731
       1.71875	     234.87448
       1.79688	     210.15625
       1.87500	     210.33554
       1.95313	     224.47488
       2.03125	     226.92110
       2.10938	     191.03484
       2.18750	     226.22951
       2.26563	     242.09784
       2.34375	     222.87396
       2.42188	     225.14087
       2.50000	     203.86783
       2.57813	     227.98412
       2.65625	     201.71619
       2.73438	     220.68391
       2.81250	     238.03790
       2.89063	     257.72284
       2.96875	     221.45235
       3.04688	     246.88780
       3.12500	     263.51178
       3.20313	     216.26537
       3.28125	     236.48820
       3.35938	     228.91905
       3.43750	     261.18085
       3.51563	     204.61066
       3.59375	     248.10451
       3.67188	     214.40829
       3.75000	     244.72336
       3.82813	     231.96721
       3.90625	     254.48257
       3.98438	     187.03893
       4.06250	     188.31967
       4.14063	     222.47694
       4.21875	     266.50870
       4.29688	     199.66701
       4.37500	     233.76024
       4.45313	     204.89241
       4.53125	     207.13370
       4.60938	     241.93135
       4.68750	     218.03278
       4.76563	     215.18954
       4.84375	     227.26691
       4.92188	     227.13882
       5.00000	     239.51076
       5.07813	     250.34579
       5.15625	     203.88063
       5.23438	     228.40675
       5.31250	     216.43185
       5.39063	     195.27408
       5.46875	     215.98360
       5.54688	     227.75359
       5.62500	     219.80020
       5.70313	     195.28688
       5.78125	     227.97130
       5.85938	     224.87192
       5.93750	     224.88472
       6.01563	     226.39600
       6.09375	     259.23410
       6.17188	     208.06863
       6.25000	     229.94363
       6.32813	     256.62140
       6.40625	     232.40266
       6.48438	     222.79712
       6.56250	     208.69620
       6.64063	     210.60451
       6.71875	     237.62807
       6.79688	     225.71721
       6.87500	     262.90982
       6.95313	     238.72951
       7.03125	     198.82172
       7.10938	     246.55481
       7.18750	     189.38268
       7.26563	     218.37859
       7.34375	     235.73257
       7.42188	     191.00922
       7.50000	     207.81250
       7.57813	     217.85347
       7.65625	     231.10912
       7.73438	     193.54507
       7.81250	     252.66393
       7.89063	     213.93442
       7.96875	     293.87805
       8.04688	     211.74435
       8.12500	     240.36885
       8.20313	     228.72694
       8.28125	     209.17007
       8.35938	     249.21875
       8.43750	     205.36629
       8.51563	     263.29404
       8.59375	     278.41956
       8.67188	     219.92827
       8.75000	     236.07837
       8.82813	     267.00818
       8.90625	     200.16649
       8.98438	     229.91803
       9.06250	     216.17570
       9.14063	     200.53790
       9.21875	     249.56454
       9.29688	     220.54303
       9.37500	     190.77869
       9.45313	     204.77715
       9.53125	     217.99435
       9.60938	     197.77151
       9.68750	     198.16853
       9.76563	     258.67059
       9.84375	     165.82991
       9.92188	     221.33708
      10.00000	     247.14395
      10.07813	     227.13882
      10.15625	     243.83965
      10.23438	     222.54097
      10.31250	     257.17212
      10.39063	     209.66957
      10.46875	     197.28484
      10.54688	     187.46158
      10.62500	     218.91649
      10.70313	     223.11731
      10.78125	     262.48718
      10.85938	     254.32889
      10.93750	     237.37192
      11.01563	     209.45184
      11.09375	     265.52252
      11.17188	     217.03380
      11.25000	     264.54916
      11.32813	     231.32684
      11.40625	     305.77612
      11.48438	     232.73564
      11.56250	     214.70287
      11.64063	     219.41597
      11.71875	     231.28842
      11.79688	     245.85040
      11.87500	     261.48822
      11.95313	     169.26228
      12.03125	     229.53380
      12.10938	     226.74179
      12.18750	     214.63882
      12.26563	     234.49026
      12.34375	     224.42366
      12.42188	     220.54303
      12.50000	     229.32889
      12.57813	     248.16853
      12.65625	     239.17776
      12.73438	     204.46977
      12.81250	     252.34375
      12.89063	     242.07222
      12.96875	     213.61424
      13.04688	     261.02713
      13.12500	     217.98155
      13.20313	     235.88626
      13.28125	     219.14702
      13.35938	     240.36885
      13.43750	     214.04968
      13.51563	     232.12090
      13.59375	     219.33913
      13.67188	     230.28944
      13.75000	     213.76793
      13.82813	     218.17366
      13.90625	     204.89241
      13.98438	     261.89804
      14.06250	     238.70389
      14.14063	     202.74077
      14.21875	     229.32889
      14.29688	     201.46004
      14.37500	     246.23462
      14.45313	     207.21054
      14.53125	     245.15880
      14.60938	     260.15625
      14.68750	     239.83093
      14.76563	     179.82837
      14.84375	     208.84988
      14.92188	     226.57530
      15.00000	     213.65266
      15.07813	     214.66444
      15.15625	     218.68596
      15.23438	     226.47284
      15.31250	     260.95029
      15.39063	     240.34323
      15.46875	     237.99948
      15.54688	     239.74129
      15.62500	     220.91444
      15.70313	     204.32889
      15.78125	     239.08810
      15.85938	     229.86679
      15.93750	     247.95081
      16.01563	     243.08401
      16.09375	     248.34784
      16.17188	     228.13780
      16.25000	     279.32889
      16.32813	     244.23668
      16.40625	     217.05942
      16.48438	     204.23924
      16.56250	     227.59988
      16.64063	     240.25359
      16.71875	     227.70235
      16.79688	     248.01485
      16.87500	     256.85193
      16.95313	     244.46721
      17.03125	     203.85501
      17.10938	     256.23718
      17.18750	     201.46004
      17.26563	     209.98975
      17.34375	     220.09477
      17.42188	     252.68954
      17.50000	     255.44313
      17.57813	     230.81454
      17.65625	     243.87807
      17.73438	     200.87090
      17.81250	     219.80020
      17.89063	     244.86423
      17.96875	     253.67570
      18.04688	     192.72540
      18.12500	     222.80994
      18.20313	     221.95184
      18.28125	     229.38011
      18.35938	     217.54610
      18.43750	     239.01126
      18.51563	     219.42879
      18.59375	     192.50768
      18.67188	     216.85451
      18.75000	     219.62090
      18.82813	     205.12294
      18.90625	     222.04149
      18.98438	     248.70645
      19.06250	     204.86679
      19.14063	     227.03636
      19.21875	     218.48103
      19.29688	     190.06146
      19.37500	     250.44826
      19.45313	     205.57120
      19.53125	     242.43083
      19.60938	     200.16649
      19.68750	     227.97130
      19.76563	     188.74231
      19.84375	     277.93289
      19.92188	     228.18903

Monitor Diode	  80083.12

"Cumulant 1.Order"
FluctuationFreq. [1/ms]	 1.2043E+000
DiffCoefficient [µm²/s]	 4.6445E+000
Hydrodyn. Radius [nm]	 4.4647E+001

"Cumulant 2.Order"
FluctuationFreq. [1/ms]	 1.2483E+000
DiffCoefficient [µm²/s]	 4.8142E+000
Hydrodyn. Radius [nm]	 4.3074E+001
Expansion Parameter µ2	 1.5096E-001

"Cumulant 3.Order"
FluctuationFreq. [1/ms]	 1.2424E+000
DiffCoefficient [µm²/s]	 4.7917E+000
Hydrodyn. Radius [nm]	 4.3276E+001
Expansion Parameter µ2	 9.9746E-002
Expansion Parameter µ3	-1.3847E-001

"StandardDeviation"
  1.25000E-004	  8.47811E-003
  2.50000E-004	  8.47950E-003
  3.75000E-004	  8.48119E-003
  5.00000E-004	  8.48257E-003
  6.25000E-004	  8.48418E-003
  7.50000E-004	  8.48608E-003
  8.75000E-004	  8.48730E-003
  1.00000E-003	  8.48890E-003
  1.12500E-003	  8.48515E-003
  1.25000E-003	  8.48095E-003
  1.37500E-003	  8.48147E-003
  1.50000E-003	  8.47739E-003
  1.62500E-003	  8.47674E-003
  1.75000E-003	  8.48038E-003
  1.87500E-003	  8.47386E-003
  2.00000E-003	  8.04536E-003
  2.25000E-003	  8.04465E-003
  2.50000E-003	  8.04550E-003
  2.75000E-003	  8.04592E-003
  3.00000E-003	  8.04435E-003
  3.25000E-003	  8.04508E-003
  3.50000E-003	  8.04570E-003
  3.75000E-003	  8.04429E-003
  4.00000E-003	  7.82051E-003
  4.50000E-003	  7.81779E-003
  5.00000E-003	  7.81769E-003
  5.50000E-003	  7.81759E-003
  6.00000E-003	  7.81666E-003
  6.50000E-003	  7.81688E-003
  7.00000E-003	  7.81612E-003
  7.50000E-003	  7.81457E-003
  8.00000E-003	  7.70018E-003
  9.00000E-003	  7.69651E-003
  1.00000E-002	  7.69553E-003
  1.10000E-002	  7.69398E-003
  1.20000E-002	  7.69268E-003
  1.30000E-002	  7.69140E-003
  1.40000E-002	  7.69015E-003
  1.50000E-002	  7.68886E-003
  1.60000E-002	  7.62904E-003
  1.80000E-002	  7.62140E-003
  2.00000E-002	  7.61928E-003
  2.20000E-002	  7.61697E-003
  2.40000E-002	  7.61388E-003
  2.60000E-002	  7.61134E-003
  2.80000E-002	  7.60864E-003
  3.00000E-002	  7.60593E-003
  3.20000E-002	  7.57172E-003
  3.60000E-002	  7.55718E-003
  4.00000E-002	  7.55148E-003
  4.40000E-002	  7.54614E-003
  4.80000E-002	  7.54020E-003
  5.20000E-002	  7.53442E-003
  5.60000E-002	  7.52771E-003
  6.00000E-002	  7.52068E-003
  6.40000E-002	  7.48335E-003
  7.20000E-002	  7.45162E-003
  8.00000E-002	  7.43808E-003
  8.80000E-002	  7.42336E-003
  9.60000E-002	  7.40793E-003
  1.04000E-001	  7.39232E-003
  1.12000E-001	  7.37639E-003
  1.20000E-001	  7.35955E-003
  1.28000E-001	  7.35031E-003
  1.44000E-001	  7.28520E-003
  1.60000E-001	  7.24549E-003
  1.76000E-001	  7.20465E-003
  1.92000E-001	  7.15055E-003
  2.08000E-001	  7.10683E-003
  2.24000E-001	  7.06102E-003
  2.40000E-001	  7.01562E-003
  2.56000E-001	  6.98278E-003
  2.88000E-001	  6.85400E-003
  3.20000E-001	  6.74477E-003
  3.52000E-001	  6.64591E-003
  3.84000E-001	  6.55341E-003
  4.16000E-001	  6.45080E-003
  4.48000E-001	  6.33920E-003
  4.80000E-001	  6.23185E-003
  5.12000E-001	  6.12201E-003
  5.76000E-001	  5.89052E-003
  6.40000E-001	  5.70343E-003
  7.04000E-001	  5.51261E-003
  7.68000E-001	  5.33751E-003
  8.32000E-001	  5.16214E-003
  8.96000E-001	  5.00255E-003
  9.60000E-001	  4.85369E-003
  1.02400E+000	  4.72167E-003
  1.15200E+000	  4.50374E-003
  1.28000E+000	  3.85534E-003
  1.40800E+000	  3.85534E-003
  1.53600E+000	  3.85534E-003
  1.66400E+000	  3.85534E-003
  1.79200E+000	  3.85534E-003
  1.92000E+000	  3.85534E-003
  2.01600E+000	  3.78906E-003
  2.27200E+000	  3.78906E-003
  2.52800E+000	  3.78906E-003
  2.78400E+000	  3.78906E-003
  3.04000E+000	  3.78906E-003
  3.29600E+000	  3.78906E-003
  3.55200E+000	  3.78906E-003
  3.80800E+000	  3.78906E-003
  4.06400E+000	  3.54352E-003
  4.57600E+000	  3.54352E-003
  5.08800E+000	  3.54352E-003
  5.60000E+000	  3.54352E-003
  6.11200E+000	  3.54352E-003
  6.62400E+000	  3.54352E-003
  7.13600E+000	  3.54352E-003
  7.64800E+000	  3.54352E-003
  8.16000E+000	  3.30405E-003
  9.18400E+000	  3.30405E-003
  1.02080E+001	  3.30405E-003
  1.12320E+001	  3.30405E-003
  1.22560E+001	  3.30405E-003
  1.32800E+001	  3.30405E-003
  1.43040E+001	  3.30405E-003
  1.53280E+001	  3.30405E-003
  1.63520E+001	  2.82199E-003
  1.84000E+001	  2.82199E-003
  2.04480E+001	  2.82199E-003
  2.24960E+001	  2.82199E-003
  2.45440E+001	  2.82199E-003
  2.65920E+001	  2.82199E-003
  2.86400E+001	  2.82199E-003
  3.06880E+001	  2.82199E-003
  3.27360E+001	  2.23707E-003
  3.68320E+001	  2.23707E-003
  4.09280E+001	  2.23707E-003
  4.50240E+001	  2.23707E-003
  4.91200E+001	  2.23707E-003
  5.32160E+001	  2.23707E-003
  5.73120E+001	  2.23707E-003
  6.14080E+001	  2.23707E-003
  6.55040E+001	  1.67371E-003
  7.36960E+001	  1.67371E-003
  8.18880E+001	  1.67371E-003
  9.00800E+001	  1.67371E-003
  9.82720E+001	  1.67371E-003
  1.06464E+002	  1.67371E-003
  1.14656E+002	  1.67371E-003
  1.22848E+002	  1.67371E-003
  1.31040E+002	  1.21597E-003
  1.47424E+002	  1.21597E-003
  1.63808E+002	  1.21597E-003
  1.80192E+002	  1.21597E-003
  1.96576E+002	  1.21597E-003
  2.12960E+002	  1.21597E-003
  2.29344E+002	  1.21597E-003
  2.45728E+002	  1.21597E-003
  2.62112E+002	  8.71302E-004
  2.94880E+002	  8.71302E-004
  3.27648E+002	  8.71302E-004
  3.60416E+002	  8.71302E-004
  3.93184E+002	  8.71302E-004
  4.25952E+002	  8.71302E-004
  4.58720E+002	  8.71302E-004
  4.91488E+002	  8.71302E-004
