ALV-6000/E-WIN Data
Date :	"11/7/2025"
Time :	"12:56:14 PM"
Samplename : 	"NaCl - 0.085 micrometer"
SampMemo(0) : 	""
SampMemo(1) : 	""
SampMemo(2) : 	""
SampMemo(3) : 	""
SampMemo(4) : 	""
SampMemo(5) : 	""
SampMemo(6) : 	""
SampMemo(7) : 	""
SampMemo(8) : 	""
SampMemo(9) : 	""
Temperature [K] :	     292.03536
Viscosity [cp]  :	       1.02960
Refractive Index:	       1.33200
Wavelength [nm] :	     632.80000
Angle [°]       :	      99.99900
Duration [s]    :	        20
Runs            :	         1
Mode            :	"SINGLE AUTO CH0 "
MeanCR0 [kHz]   :	     205.78114
MeanCR1 [kHz]   :	       0.00000

"Correlation"
  1.25000E-004	  4.01577E+000
  2.50000E-004	  5.18546E+000
  3.75000E-004	  5.15568E+000
  5.00000E-004	  5.16012E+000
  6.25000E-004	  5.13428E+000
  7.50000E-004	  5.13134E+000
  8.75000E-004	  5.12250E+000
  1.00000E-003	  5.08164E+000
  1.12500E-003	  5.11603E+000
  1.25000E-003	  5.09364E+000
  1.37500E-003	  5.09748E+000
  1.50000E-003	  5.08822E+000
  1.62500E-003	  5.09140E+000
  1.75000E-003	  5.07248E+000
  1.87500E-003	  5.09603E+000
  2.00000E-003	  5.08948E+000
  2.25000E-003	  5.07734E+000
  2.50000E-003	  5.06378E+000
  2.75000E-003	  5.07064E+000
  3.00000E-003	  5.06423E+000
  3.25000E-003	  5.05510E+000
  3.50000E-003	  5.06022E+000
  3.75000E-003	  5.04708E+000
  4.00000E-003	  5.03001E+000
  4.50000E-003	  5.04248E+000
  5.00000E-003	  5.02201E+000
  5.50000E-003	  5.01208E+000
  6.00000E-003	  5.00319E+000
  6.50000E-003	  4.99452E+000
  7.00000E-003	  4.98642E+000
  7.50000E-003	  4.97555E+000
  8.00000E-003	  4.96380E+000
  9.00000E-003	  4.94849E+000
  1.00000E-002	  4.92458E+000
  1.10000E-002	  4.90744E+000
  1.20000E-002	  4.88980E+000
  1.30000E-002	  4.87829E+000
  1.40000E-002	  4.84470E+000
  1.50000E-002	  4.82970E+000
  1.60000E-002	  4.81358E+000
  1.80000E-002	  4.77279E+000
  2.00000E-002	  4.74118E+000
  2.20000E-002	  4.70130E+000
  2.40000E-002	  4.66291E+000
  2.60000E-002	  4.63022E+000
  2.80000E-002	  4.58964E+000
  3.00000E-002	  4.55218E+000
  3.20000E-002	  4.52273E+000
  3.60000E-002	  4.45188E+000
  4.00000E-002	  4.38203E+000
  4.40000E-002	  4.31319E+000
  4.80000E-002	  4.24747E+000
  5.20000E-002	  4.18079E+000
  5.60000E-002	  4.11571E+000
  6.00000E-002	  4.05166E+000
  6.40000E-002	  3.99125E+000
  7.20000E-002	  3.86764E+000
  8.00000E-002	  3.74787E+000
  8.80000E-002	  3.63524E+000
  9.60000E-002	  3.52468E+000
  1.04000E-001	  3.41740E+000
  1.12000E-001	  3.31218E+000
  1.20000E-001	  3.20984E+000
  1.28000E-001	  3.11218E+000
  1.44000E-001	  2.92604E+000
  1.60000E-001	  2.75132E+000
  1.76000E-001	  2.58540E+000
  1.92000E-001	  2.42916E+000
  2.08000E-001	  2.28438E+000
  2.24000E-001	  2.14589E+000
  2.40000E-001	  2.01832E+000
  2.56000E-001	  1.89823E+000
  2.88000E-001	  1.68013E+000
  3.20000E-001	  1.48566E+000
  3.52000E-001	  1.31683E+000
  3.84000E-001	  1.16453E+000
  4.16000E-001	  1.03160E+000
  4.48000E-001	  9.13592E-001
  4.80000E-001	  8.08026E-001
  5.12000E-001	  7.16932E-001
  5.76000E-001	  5.58820E-001
  6.40000E-001	  4.37334E-001
  7.04000E-001	  3.45499E-001
  7.68000E-001	  2.74989E-001
  8.32000E-001	  2.18132E-001
  8.96000E-001	  1.71115E-001
  9.60000E-001	  1.34886E-001
  1.02400E+000	  1.07030E-001
  1.15200E+000	  6.48560E-002
  1.28000E+000	  3.70357E-002
  1.40800E+000	  2.09616E-002
  1.53600E+000	  1.57667E-002
  1.66400E+000	  1.39099E-002
  1.79200E+000	  1.10352E-002
  1.92000E+000	  7.79396E-003
  2.01600E+000	  2.41824E-003
  2.27200E+000	 -1.02994E-003
  2.52800E+000	 -3.21285E-003
  2.78400E+000	 -2.95249E-004
  3.04000E+000	 -4.02392E-003
  3.29600E+000	 -4.12239E-003
  3.55200E+000	 -3.63780E-003
  3.80800E+000	  6.59866E-003
  4.06400E+000	  6.96041E-003
  4.57600E+000	  4.20849E-003
  5.08800E+000	 -1.43104E-003
  5.60000E+000	 -3.68774E-003
  6.11200E+000	 -1.02058E-002
  6.62400E+000	 -8.90324E-003
  7.13600E+000	 -2.58931E-003
  7.64800E+000	 -5.49549E-003
  8.16000E+000	 -3.14916E-003
  9.18400E+000	 -4.82952E-003
  1.02080E+001	 -3.12658E-005
  1.12320E+001	  1.24606E-002
  1.22560E+001	  5.58525E-003
  1.32800E+001	  2.31677E-003
  1.43040E+001	 -6.09065E-003
  1.53280E+001	 -5.84622E-003
  1.63520E+001	 -5.13515E-005
  1.84000E+001	 -2.51236E-003
  2.04480E+001	 -8.66184E-003
  2.24960E+001	 -5.82970E-003
  2.45440E+001	 -1.65479E-003
  2.65920E+001	 -5.45786E-003
  2.86400E+001	 -2.60068E-003
  3.06880E+001	  1.50073E-003
  3.27360E+001	 -8.46356E-005
  3.68320E+001	  1.95226E-003
  4.09280E+001	  8.61133E-003
  4.50240E+001	  3.87780E-003
  4.91200E+001	  1.56530E-003
  5.32160E+001	  8.46246E-005
  5.73120E+001	  1.94058E-003
  6.14080E+001	 -1.02056E-003
  6.55040E+001	 -3.31379E-003
  7.36960E+001	 -1.76342E-003
  8.18880E+001	 -1.42871E-003
  9.00800E+001	 -1.17527E-003
  9.82720E+001	  3.22928E-003
  1.06464E+002	  4.03046E-005
  1.14656E+002	 -2.23010E-003
  1.22848E+002	  2.69451E-003
  1.31040E+002	  2.45740E-003
  1.47424E+002	 -1.62868E-003
  1.63808E+002	  1.36835E-004
  1.80192E+002	  1.30284E-003
  1.96576E+002	  8.53703E-004
  2.12960E+002	  3.06158E-003
  2.29344E+002	 -7.62979E-003
  2.45728E+002	  7.22213E-004
  2.62112E+002	 -9.84858E-004
  2.94880E+002	 -1.35078E-003
  3.27648E+002	 -1.66546E-003
  3.60416E+002	 -4.92900E-004
  3.93184E+002	  2.73132E-003
  4.25952E+002	  1.21703E-003
  4.58720E+002	 -4.52109E-004
  4.91488E+002	 -1.17830E-003
  5.24256E+002	  1.26328E-004
  5.89792E+002	 -2.07669E-004
  6.55328E+002	 -1.09597E-004
  7.20864E+002	  1.21270E-003
  7.86400E+002	 -1.19937E-003
  8.51936E+002	  5.60112E-004
  9.17472E+002	 -8.48406E-004
  9.83008E+002	 -1.07235E-004
  1.04854E+003	  3.70310E-004
  1.17962E+003	  2.27772E-004
  1.31069E+003	  1.88273E-003
  1.44176E+003	  1.01130E-004
  1.57283E+003	 -2.92268E-004
  1.70390E+003	 -1.09112E-003
  1.83498E+003	  4.56237E-004
  1.96605E+003	 -8.05756E-004
  2.09712E+003	 -5.57692E-004
  2.35926E+003	 -3.51029E-004
  2.62141E+003	  2.16762E-005
  2.88355E+003	 -9.70617E-004
  3.14570E+003	  4.93315E-004
  3.40784E+003	 -3.41346E-004
  3.66998E+003	  2.35358E-004
  3.93213E+003	 -1.23489E-003
  4.19427E+003	  2.73155E-004
  4.71856E+003	  6.19287E-004
  5.24285E+003	 -7.49166E-004
  5.76714E+003	 -8.51760E-005
  6.29142E+003	  2.64379E-004
  6.81571E+003	  6.82387E-005
  7.34000E+003	  9.65028E-005
  7.86429E+003	 -5.43354E-005

"Count Rate"
       0.07813	     234.47745
       0.15625	     192.45645
       0.23438	     221.74692
       0.31250	     189.66444
       0.39063	     210.45082
       0.46875	     186.42418
       0.54688	     224.44928
       0.62500	     199.02663
       0.70313	     204.27766
       0.78125	     229.13678
       0.85938	     204.09836
       0.93750	     221.61885
       1.01563	     192.00819
       1.09375	     192.17468
       1.17188	     197.79712
       1.25000	     202.54866
       1.32813	     213.89600
       1.40625	     222.06711
       1.48438	     207.04405
       1.56250	     198.57837
       1.64063	     217.93033
       1.71875	     190.97079
       1.79688	     225.32018
       1.87500	     203.12500
       1.95313	     214.84375
       2.03125	     180.95543
       2.10938	     194.68494
       2.18750	     207.24896
       2.26563	     185.97592
       2.34375	     215.89395
       2.42188	     199.46208
       2.50000	     172.24641
       2.57813	     235.93750
       2.65625	     193.78842
       2.73438	     214.62602
       2.81250	     185.65573
       2.89063	     213.57582
       2.96875	     206.81352
       3.04688	     224.37244
       3.12500	     232.42827
       3.20313	     205.54559
       3.28125	     179.77715
       3.35938	     220.36372
       3.43750	     194.87704
       3.51563	     221.92622
       3.59375	     199.69261
       3.67188	     209.42622
       3.75000	     189.07530
       3.82813	     197.79712
       3.90625	     181.28842
       3.98438	     202.63832
       4.06250	     181.23718
       4.14063	     184.25974
       4.21875	     222.43852
       4.29688	     197.68185
       4.37500	     198.04047
       4.45313	     221.86218
       4.53125	     201.43442
       4.60938	     186.02715
       4.68750	     200.14087
       4.76563	     205.60962
       4.84375	     216.48309
       4.92188	     190.24077
       5.00000	     209.97694
       5.07813	     215.93237
       5.15625	     202.67674
       5.23438	     239.70287
       5.31250	     192.46925
       5.39063	     206.64702
       5.46875	     199.02663
       5.54688	     190.62500
       5.62500	     224.53893
       5.70313	     189.28021
       5.78125	     211.60349
       5.85938	     190.66342
       5.93750	     228.65010
       6.01563	     202.59990
       6.09375	     213.56300
       6.17188	     214.10092
       6.25000	     203.56044
       6.32813	     208.18391
       6.40625	     209.86168
       6.48438	     212.17981
       6.56250	     203.54764
       6.64063	     222.74590
       6.71875	     196.68288
       6.79688	     181.19876
       6.87500	     210.84784
       6.95313	     186.68033
       7.03125	     223.97540
       7.10938	     220.21004
       7.18750	     197.42570
       7.26563	     222.15675
       7.34375	     195.41495
       7.42188	     184.86168
       7.50000	     195.26126
       7.57813	     202.16444
       7.65625	     216.59836
       7.73438	     209.96413
       7.81250	     212.11577
       7.89063	     197.96362
       7.96875	     186.11679
       8.04688	     202.58708
       8.12500	     205.40471
       8.20313	     211.39856
       8.28125	     193.55788
       8.35938	     196.55481
       8.43750	     212.65369
       8.51563	     220.92725
       8.59375	     184.60553
       8.67188	     184.47745
       8.75000	     193.27612
       8.82813	     217.77663
       8.90625	     191.44467
       8.98438	     217.36679
       9.06250	     207.41547
       9.14063	     187.66649
       9.21875	     201.24231
       9.29688	     185.36116
       9.37500	     202.01076
       9.45313	     202.89445
       9.53125	     203.79099
       9.60938	     214.47234
       9.68750	     194.46721
       9.76563	     205.92981
       9.84375	     215.65060
       9.92188	     212.97386
      10.00000	     216.43185
      10.07813	     190.79149
      10.15625	     199.69261
      10.23438	     216.89293
      10.31250	     232.46669
      10.39063	     204.17520
      10.46875	     193.53227
      10.54688	     221.46516
      10.62500	     179.50819
      10.70313	     225.29456
      10.78125	     210.36116
      10.85938	     200.64037
      10.93750	     217.00819
      11.01563	     175.03842
      11.09375	     203.52202
      11.17188	     211.93646
      11.25000	     202.24129
      11.32813	     190.34323
      11.40625	     190.39445
      11.48438	     194.60809
      11.56250	     222.60501
      11.64063	     202.99692
      11.71875	     191.80327
      11.79688	     207.90215
      11.87500	     199.96158
      11.95313	     202.10040
      12.03125	     211.83401
      12.10938	     207.04405
      12.18750	     209.51587
      12.26563	     217.11066
      12.34375	     220.55583
      12.42188	     198.60399
      12.50000	     195.92725
      12.57813	     207.22336
      12.65625	     198.41188
      12.73438	     207.33862
      12.81250	     213.34528
      12.89063	     217.84067
      12.96875	     205.99385
      13.04688	     204.99487
      13.12500	     205.63524
      13.20313	     202.35655
      13.28125	     212.05174
      13.35938	     210.00255
      13.43750	     198.06609
      13.51563	     201.66495
      13.59375	     193.26332
      13.67188	     192.66136
      13.75000	     208.22234
      13.82813	     191.86731
      13.90625	     214.06250
      13.98438	     220.15880
      14.06250	     198.74487
      14.14063	     222.32326
      14.21875	     208.45287
      14.29688	     194.41599
      14.37500	     196.84938
      14.45313	     215.75307
      14.53125	     217.95593
      14.60938	     176.72899
      14.68750	     218.36577
      14.76563	     204.32889
      14.84375	     181.50615
      14.92188	     222.40010
      15.00000	     206.82632
      15.07813	     209.65675
      15.15625	     180.51997
      15.23438	     206.08350
      15.31250	     223.07889
      15.39063	     214.24179
      15.46875	     213.67827
      15.54688	     204.14958
      15.62500	     217.30276
      15.70313	     190.63780
      15.78125	     209.56711
      15.85938	     194.64651
      15.93750	     229.05994
      16.01563	     224.10347
      16.09375	     209.70799
      16.17188	     217.46925
      16.25000	     190.75307
      16.32813	     198.98820
      16.40625	     217.05942
      16.48438	     223.80891
      16.56250	     234.09323
      16.64063	     248.71925
      16.71875	     221.59323
      16.79688	     210.25870
      16.87500	     213.08913
      16.95313	     196.97745
      17.03125	     196.69569
      17.10938	     192.32837
      17.18750	     239.98462
      17.26563	     215.09988
      17.34375	     200.11526
      17.42188	     189.95901
      17.50000	     195.04353
      17.57813	     195.63268
      17.65625	     186.38576
      17.73438	     209.09323
      17.81250	     221.69569
      17.89063	     259.19568
      17.96875	     194.77458
      18.04688	     223.70645
      18.12500	     221.55481
      18.20313	     197.92520
      18.28125	     208.52971
      18.35938	     197.07991
      18.43750	     184.50307
      18.51563	     203.36833
      18.59375	     206.05788
      18.67188	     189.85655
      18.75000	     209.42622
      18.82813	     211.46260
      18.90625	     204.94365
      18.98438	     203.98309
      19.06250	     224.50050
      19.14063	     230.54559
      19.21875	     203.61168
      19.29688	     191.38063
      19.37500	     164.11372
      19.45313	     215.07428
      19.53125	     188.15317
      19.60938	     222.55379
      19.68750	     214.70287
      19.76563	     221.11935
      19.84375	     245.40215
      19.92188	     186.76997

Monitor Diode	  79549.62

"Cumulant 1.Order"
FluctuationFreq. [1/ms]	 1.9671E+000
DiffCoefficient [µm²/s]	 4.7912E+000
Hydrodyn. Radius [nm]	 4.3342E+001

"Cumulant 2.Order"
FluctuationFreq. [1/ms]	 1.9651E+000
DiffCoefficient [µm²/s]	 4.7862E+000
Hydrodyn. Radius [nm]	 4.3387E+001
Expansion Parameter µ2	-1.1812E-002

"Cumulant 3.Order"
FluctuationFreq. [1/ms]	 1.9842E+000
DiffCoefficient [µm²/s]	 4.8327E+000
Hydrodyn. Radius [nm]	 4.2969E+001
Expansion Parameter µ2	 2.6882E-001
Expansion Parameter µ3	 1.2872E+000

"StandardDeviation"
  1.25000E-004	  7.27061E-003
  2.50000E-004	  7.27218E-003
  3.75000E-004	  7.27338E-003
  5.00000E-004	  7.27559E-003
  6.25000E-004	  7.27763E-003
  7.50000E-004	  7.27888E-003
  8.75000E-004	  7.28101E-003
  1.00000E-003	  7.28304E-003
  1.12500E-003	  7.27865E-003
  1.25000E-003	  7.27442E-003
  1.37500E-003	  7.26572E-003
  1.50000E-003	  7.26874E-003
  1.62500E-003	  7.26911E-003
  1.75000E-003	  7.26140E-003
  1.87500E-003	  7.26330E-003
  2.00000E-003	  6.64254E-003
  2.25000E-003	  6.64097E-003
  2.50000E-003	  6.64150E-003
  2.75000E-003	  6.64077E-003
  3.00000E-003	  6.64148E-003
  3.25000E-003	  6.63900E-003
  3.50000E-003	  6.64047E-003
  3.75000E-003	  6.63994E-003
  4.00000E-003	  6.30468E-003
  4.50000E-003	  6.30364E-003
  5.00000E-003	  6.30277E-003
  5.50000E-003	  6.30143E-003
  6.00000E-003	  6.30080E-003
  6.50000E-003	  6.30056E-003
  7.00000E-003	  6.29847E-003
  7.50000E-003	  6.29767E-003
  8.00000E-003	  6.12343E-003
  9.00000E-003	  6.11854E-003
  1.00000E-002	  6.11700E-003
  1.10000E-002	  6.11562E-003
  1.20000E-002	  6.11413E-003
  1.30000E-002	  6.11261E-003
  1.40000E-002	  6.11098E-003
  1.50000E-002	  6.10925E-003
  1.60000E-002	  6.01880E-003
  1.80000E-002	  6.00901E-003
  2.00000E-002	  6.00629E-003
  2.20000E-002	  6.00304E-003
  2.40000E-002	  5.99879E-003
  2.60000E-002	  5.99563E-003
  2.80000E-002	  5.99224E-003
  3.00000E-002	  5.98827E-003
  3.20000E-002	  5.93785E-003
  3.60000E-002	  5.91969E-003
  4.00000E-002	  5.91098E-003
  4.40000E-002	  5.90303E-003
  4.80000E-002	  5.89423E-003
  5.20000E-002	  5.88558E-003
  5.60000E-002	  5.87576E-003
  6.00000E-002	  5.86567E-003
  6.40000E-002	  5.82681E-003
  7.20000E-002	  5.78675E-003
  8.00000E-002	  5.76380E-003
  8.80000E-002	  5.74055E-003
  9.60000E-002	  5.71536E-003
  1.04000E-001	  5.68954E-003
  1.12000E-001	  5.66339E-003
  1.20000E-001	  5.63537E-003
  1.28000E-001	  5.59252E-003
  1.44000E-001	  5.50891E-003
  1.60000E-001	  5.44771E-003
  1.76000E-001	  5.38460E-003
  1.92000E-001	  5.31858E-003
  2.08000E-001	  5.25154E-003
  2.24000E-001	  5.18410E-003
  2.40000E-001	  5.11552E-003
  2.56000E-001	  5.05364E-003
  2.88000E-001	  4.89804E-003
  3.20000E-001	  4.76702E-003
  3.52000E-001	  4.64043E-003
  3.84000E-001	  4.51829E-003
  4.16000E-001	  4.39857E-003
  4.48000E-001	  4.28351E-003
  4.80000E-001	  4.17425E-003
  5.12000E-001	  4.04709E-003
  5.76000E-001	  3.85736E-003
  6.40000E-001	  3.70624E-003
  7.04000E-001	  3.58319E-003
  7.68000E-001	  3.48397E-003
  8.32000E-001	  3.39566E-003
  8.96000E-001	  3.31363E-003
  9.60000E-001	  3.24979E-003
  1.02400E+000	  3.16854E-003
  1.15200E+000	  3.02499E-003
  1.28000E+000	  3.02499E-003
  1.40800E+000	  3.02499E-003
  1.53600E+000	  3.02499E-003
  1.66400E+000	  3.02499E-003
  1.79200E+000	  3.02499E-003
  1.92000E+000	  3.02499E-003
  2.01600E+000	  2.92085E-003
  2.27200E+000	  2.92085E-003
  2.52800E+000	  2.92085E-003
  2.78400E+000	  2.92085E-003
  3.04000E+000	  2.92085E-003
  3.29600E+000	  2.92085E-003
  3.55200E+000	  2.92085E-003
  3.80800E+000	  2.92085E-003
  4.06400E+000	  2.64966E-003
  4.57600E+000	  2.64966E-003
  5.08800E+000	  2.64966E-003
  5.60000E+000	  2.64966E-003
  6.11200E+000	  2.64966E-003
  6.62400E+000	  2.64966E-003
  7.13600E+000	  2.64966E-003
  7.64800E+000	  2.64966E-003
  8.16000E+000	  2.33716E-003
  9.18400E+000	  2.33716E-003
  1.02080E+001	  2.33716E-003
  1.12320E+001	  2.33716E-003
  1.22560E+001	  2.33716E-003
  1.32800E+001	  2.33716E-003
  1.43040E+001	  2.33716E-003
  1.53280E+001	  2.33716E-003
  1.63520E+001	  1.88025E-003
  1.84000E+001	  1.88025E-003
  2.04480E+001	  1.88025E-003
  2.24960E+001	  1.88025E-003
  2.45440E+001	  1.88025E-003
  2.65920E+001	  1.88025E-003
  2.86400E+001	  1.88025E-003
  3.06880E+001	  1.88025E-003
  3.27360E+001	  1.42426E-003
  3.68320E+001	  1.42426E-003
  4.09280E+001	  1.42426E-003
  4.50240E+001	  1.42426E-003
  4.91200E+001	  1.42426E-003
  5.32160E+001	  1.42426E-003
  5.73120E+001	  1.42426E-003
  6.14080E+001	  1.42426E-003
  6.55040E+001	  1.04076E-003
  7.36960E+001	  1.04076E-003
  8.18880E+001	  1.04076E-003
  9.00800E+001	  1.04076E-003
  9.82720E+001	  1.04076E-003
  1.06464E+002	  1.04076E-003
  1.14656E+002	  1.04076E-003
  1.22848E+002	  1.04076E-003
  1.31040E+002	  7.47827E-004
  1.47424E+002	  7.47827E-004
  1.63808E+002	  7.47827E-004
  1.80192E+002	  7.47827E-004
  1.96576E+002	  7.47827E-004
  2.12960E+002	  7.47827E-004
  2.29344E+002	  7.47827E-004
  2.45728E+002	  7.47827E-004
  2.62112E+002	  5.33000E-004
  2.94880E+002	  5.33000E-004
  3.27648E+002	  5.33000E-004
  3.60416E+002	  5.33000E-004
  3.93184E+002	  5.33000E-004
  4.25952E+002	  5.33000E-004
  4.58720E+002	  5.33000E-004
  4.91488E+002	  5.33000E-004
