ALV-6000/E-WIN Data
Date :	"11/13/2025"
Time :	"9:46:33 AM"
Samplename : 	"NaCl - 465nm"
SampMemo(0) : 	""
SampMemo(1) : 	""
SampMemo(2) : 	""
SampMemo(3) : 	""
SampMemo(4) : 	""
SampMemo(5) : 	""
SampMemo(6) : 	""
SampMemo(7) : 	""
SampMemo(8) : 	""
SampMemo(9) : 	""
Temperature [K] :	     291.80101
Viscosity [cp]  :	       1.03560
Refractive Index:	       1.33200
Wavelength [nm] :	     632.80000
Angle [°]       :	      17.99900
Duration [s]    :	        20
Runs            :	         1
Mode            :	"SINGLE AUTO CH0 "
MeanCR0 [kHz]   :	     971.02808
MeanCR1 [kHz]   :	       0.00000

"Correlation"
  1.25000E-004	  1.49024E+000
  2.50000E-004	  1.97907E+000
  3.75000E-004	  1.97561E+000
  5.00000E-004	  1.97430E+000
  6.25000E-004	  1.97374E+000
  7.50000E-004	  1.97359E+000
  8.75000E-004	  1.97147E+000
  1.00000E-003	  1.97267E+000
  1.12500E-003	  1.97305E+000
  1.25000E-003	  1.97083E+000
  1.37500E-003	  1.97196E+000
  1.50000E-003	  1.97293E+000
  1.62500E-003	  1.97029E+000
  1.75000E-003	  1.97099E+000
  1.87500E-003	  1.97170E+000
  2.00000E-003	  1.97148E+000
  2.25000E-003	  1.97099E+000
  2.50000E-003	  1.97073E+000
  2.75000E-003	  1.97083E+000
  3.00000E-003	  1.97094E+000
  3.25000E-003	  1.97147E+000
  3.50000E-003	  1.97073E+000
  3.75000E-003	  1.97156E+000
  4.00000E-003	  1.97125E+000
  4.50000E-003	  1.97235E+000
  5.00000E-003	  1.97144E+000
  5.50000E-003	  1.97094E+000
  6.00000E-003	  1.97187E+000
  6.50000E-003	  1.97129E+000
  7.00000E-003	  1.97088E+000
  7.50000E-003	  1.97053E+000
  8.00000E-003	  1.97107E+000
  9.00000E-003	  1.96992E+000
  1.00000E-002	  1.97076E+000
  1.10000E-002	  1.97074E+000
  1.20000E-002	  1.97037E+000
  1.30000E-002	  1.97081E+000
  1.40000E-002	  1.97108E+000
  1.50000E-002	  1.97049E+000
  1.60000E-002	  1.97073E+000
  1.80000E-002	  1.97064E+000
  2.00000E-002	  1.97036E+000
  2.20000E-002	  1.97020E+000
  2.40000E-002	  1.97004E+000
  2.60000E-002	  1.96994E+000
  2.80000E-002	  1.97032E+000
  3.00000E-002	  1.96973E+000
  3.20000E-002	  1.96956E+000
  3.60000E-002	  1.96926E+000
  4.00000E-002	  1.96899E+000
  4.40000E-002	  1.96897E+000
  4.80000E-002	  1.96846E+000
  5.20000E-002	  1.96889E+000
  5.60000E-002	  1.96839E+000
  6.00000E-002	  1.96834E+000
  6.40000E-002	  1.96806E+000
  7.20000E-002	  1.96785E+000
  8.00000E-002	  1.96740E+000
  8.80000E-002	  1.96662E+000
  9.60000E-002	  1.96628E+000
  1.04000E-001	  1.96602E+000
  1.12000E-001	  1.96546E+000
  1.20000E-001	  1.96481E+000
  1.28000E-001	  1.96435E+000
  1.44000E-001	  1.96351E+000
  1.60000E-001	  1.96251E+000
  1.76000E-001	  1.96155E+000
  1.92000E-001	  1.96072E+000
  2.08000E-001	  1.95991E+000
  2.24000E-001	  1.95895E+000
  2.40000E-001	  1.95807E+000
  2.56000E-001	  1.95710E+000
  2.88000E-001	  1.95533E+000
  3.20000E-001	  1.95339E+000
  3.52000E-001	  1.95160E+000
  3.84000E-001	  1.94968E+000
  4.16000E-001	  1.94792E+000
  4.48000E-001	  1.94611E+000
  4.80000E-001	  1.94441E+000
  5.12000E-001	  1.94249E+000
  5.76000E-001	  1.93893E+000
  6.40000E-001	  1.93526E+000
  7.04000E-001	  1.93160E+000
  7.68000E-001	  1.92797E+000
  8.32000E-001	  1.92452E+000
  8.96000E-001	  1.92087E+000
  9.60000E-001	  1.91728E+000
  1.02400E+000	  1.91260E+000
  1.15200E+000	  1.90556E+000
  1.28000E+000	  1.89845E+000
  1.40800E+000	  1.89142E+000
  1.53600E+000	  1.88454E+000
  1.66400E+000	  1.87760E+000
  1.79200E+000	  1.87066E+000
  1.92000E+000	  1.86374E+000
  2.01600E+000	  1.85552E+000
  2.27200E+000	  1.84183E+000
  2.52800E+000	  1.82814E+000
  2.78400E+000	  1.81462E+000
  3.04000E+000	  1.80122E+000
  3.29600E+000	  1.78783E+000
  3.55200E+000	  1.77461E+000
  3.80800E+000	  1.76162E+000
  4.06400E+000	  1.74879E+000
  4.57600E+000	  1.72330E+000
  5.08800E+000	  1.69855E+000
  5.60000E+000	  1.67444E+000
  6.11200E+000	  1.65074E+000
  6.62400E+000	  1.62772E+000
  7.13600E+000	  1.60511E+000
  7.64800E+000	  1.58308E+000
  8.16000E+000	  1.56157E+000
  9.18400E+000	  1.51885E+000
  1.02080E+001	  1.47675E+000
  1.12320E+001	  1.43602E+000
  1.22560E+001	  1.39667E+000
  1.32800E+001	  1.35829E+000
  1.43040E+001	  1.32041E+000
  1.53280E+001	  1.28345E+000
  1.63520E+001	  1.24862E+000
  1.84000E+001	  1.17938E+000
  2.04480E+001	  1.11291E+000
  2.24960E+001	  1.04996E+000
  2.45440E+001	  9.90134E-001
  2.65920E+001	  9.33757E-001
  2.86400E+001	  8.81290E-001
  3.06880E+001	  8.30400E-001
  3.27360E+001	  7.83707E-001
  3.68320E+001	  6.95194E-001
  4.09280E+001	  6.18050E-001
  4.50240E+001	  5.51404E-001
  4.91200E+001	  4.97583E-001
  5.32160E+001	  4.54386E-001
  5.73120E+001	  4.18026E-001
  6.14080E+001	  3.86622E-001
  6.55040E+001	  3.58142E-001
  7.36960E+001	  3.05565E-001
  8.18880E+001	  2.58908E-001
  9.00800E+001	  2.08466E-001
  9.82720E+001	  1.64545E-001
  1.06464E+002	  1.28988E-001
  1.14656E+002	  1.12082E-001
  1.22848E+002	  9.72183E-002
  1.31040E+002	  7.38565E-002
  1.47424E+002	  2.13934E-002
  1.63808E+002	 -1.53408E-002
  1.80192E+002	 -4.80793E-002
  1.96576E+002	 -5.82621E-002
  2.12960E+002	 -4.14636E-002
  2.29344E+002	 -1.26013E-002
  2.45728E+002	  1.17635E-004
  2.62112E+002	  2.45332E-003
  2.94880E+002	  2.49251E-002
  3.27648E+002	  1.29756E-002
  3.60416E+002	  9.98914E-003
  3.93184E+002	  3.41777E-002
  4.25952E+002	  6.88091E-002
  4.58720E+002	  1.18283E-001
  4.91488E+002	  7.09561E-002
  5.24256E+002	  1.49147E-002
  5.89792E+002	  1.80935E-002
  6.55328E+002	 -3.85516E-002
  7.20864E+002	 -5.00854E-002
  7.86400E+002	  2.14213E-002
  8.51936E+002	  7.55438E-002
  9.17472E+002	 -1.05614E-002
  9.83008E+002	 -3.93610E-002
  1.04854E+003	 -4.43036E-002
  1.17962E+003	  2.17486E-002
  1.31069E+003	 -3.24827E-002
  1.44176E+003	 -4.17273E-002
  1.57283E+003	 -6.36730E-002
  1.70390E+003	 -3.19776E-002
  1.83498E+003	 -4.99508E-003
  1.96605E+003	 -2.19165E-003
  2.09712E+003	  2.30621E-003
  2.35926E+003	 -4.28203E-002
  2.62141E+003	 -5.83446E-003
  2.88355E+003	 -6.76037E-002
  3.14570E+003	  3.33811E-002
  3.40784E+003	 -1.01451E-002
  3.66998E+003	 -2.11756E-002
  3.93213E+003	  4.20523E-002
  4.19427E+003	 -5.50446E-002
  4.71856E+003	 -2.79757E-002
  5.24285E+003	 -1.26249E-002
  5.76714E+003	 -2.13774E-002
  6.29142E+003	  5.34745E-003
  6.81571E+003	  3.12300E-002
  7.34000E+003	 -9.70566E-003
  7.86429E+003	 -2.60017E-002

"Count Rate"
       0.07813	     501.01178
       0.15625	    1310.23303
       0.23438	    1388.81909
       0.31250	    1733.10706
       0.39063	     647.04150
       0.46875	     431.87756
       0.54688	     421.72131
       0.62500	     713.65265
       0.70313	     847.38727
       0.78125	    1389.26733
       0.85938	     204.78995
       0.93750	     558.88831
       1.01563	    1546.32422
       1.09375	    1101.30627
       1.17188	     435.27151
       1.25000	    1180.39185
       1.32813	     711.09119
       1.40625	     615.82990
       1.48438	     310.15625
       1.56250	     525.78125
       1.64063	     865.53534
       1.71875	     663.89600
       1.79688	    1215.56091
       1.87500	    2620.55566
       1.95313	    1902.25403
       2.03125	     459.52869
       2.10938	     588.85754
       2.18750	     843.31451
       2.26563	     949.98718
       2.34375	    1980.50708
       2.42188	    1324.87195
       2.50000	     528.82941
       2.57813	    1089.13928
       2.65625	    1538.61426
       2.73438	    1557.46667
       2.81250	    1955.46875
       2.89063	    1360.55322
       2.96875	     585.69415
       3.04688	     615.39447
       3.12500	     367.57172
       3.20313	    1219.92822
       3.28125	     574.84631
       3.35938	     286.69312
       3.43750	    1278.09937
       3.51563	    1779.18799
       3.59375	     320.46619
       3.67188	     914.34424
       3.75000	     862.50000
       3.82813	     530.84015
       3.90625	    1328.76538
       3.98438	    1291.73926
       4.06250	    1785.56604
       4.14063	    1687.23096
       4.21875	     666.43182
       4.29688	     382.71002
       4.37500	    1190.57373
       4.45313	    1684.18286
       4.53125	    2119.64648
       4.60938	     646.04248
       4.68750	     911.30890
       4.76563	    2303.27856
       4.84375	    1887.24377
       4.92188	    1009.18286
       5.00000	     828.77814
       5.07813	     634.83606
       5.15625	     464.10092
       5.23438	     505.22540
       5.31250	     387.73053
       5.39063	     291.99539
       5.46875	     377.17725
       5.54688	    1037.62805
       5.62500	     788.70386
       5.70313	    2368.85229
       5.78125	    1872.40002
       5.85938	    1014.57477
       5.93750	    1293.13525
       6.01563	    1014.99744
       6.09375	     562.07733
       6.17188	     581.30121
       6.25000	     911.69312
       6.32813	     980.95538
       6.40625	     635.22028
       6.48438	     406.28842
       6.56250	     933.04303
       6.64063	    1566.95691
       6.71875	    1152.85596
       6.79688	     864.26740
       6.87500	    1158.84985
       6.95313	    1425.38416
       7.03125	     431.86475
       7.10938	     642.37958
       7.18750	     956.22437
       7.26563	     462.94824
       7.34375	    1306.68542
       7.42188	     495.68390
       7.50000	     702.30530
       7.57813	     522.04150
       7.65625	     589.42108
       7.73438	     386.46259
       7.81250	    1489.97180
       7.89063	     836.53943
       7.96875	    1312.02612
       8.04688	     221.81096
       8.12500	     834.00354
       8.20313	     874.74384
       8.28125	     674.59015
       8.35938	     542.36676
       8.43750	    1513.88318
       8.51563	     540.39447
       8.59375	    1122.00305
       8.67188	     922.51532
       8.75000	    1518.81396
       8.82813	     466.36783
       8.90625	     270.42776
       8.98438	     533.36322
       9.06250	    1775.24329
       9.14063	     822.22076
       9.21875	     400.58914
       9.29688	    1734.92566
       9.37500	    2263.63989
       9.45313	     622.84833
       9.53125	     887.79456
       9.60938	    1625.49939
       9.68750	    1995.83752
       9.76563	     835.19464
       9.84375	     963.62701
       9.92188	    2369.51831
      10.00000	     364.17776
      10.07813	    2139.98462
      10.15625	    1111.51379
      10.23438	    1911.37292
      10.31250	     940.52252
      10.39063	    1952.31812
      10.46875	    1268.44263
      10.54688	    1049.42358
      10.62500	     528.68854
      10.70313	     820.28687
      10.78125	    1352.53577
      10.85938	     829.66187
      10.93750	     390.81711
      11.01563	     407.56915
      11.09375	    2203.35547
      11.17188	    1625.79407
      11.25000	     767.91748
      11.32813	     900.14087
      11.40625	     953.53479
      11.48438	     687.85858
      11.56250	     607.22333
      11.64063	     407.01843
      11.71875	     294.81302
      11.79688	    1716.63672
      11.87500	    1189.07532
      11.95313	     738.80634
      12.03125	    1086.88525
      12.10938	     539.53638
      12.18750	     679.41852
      12.26563	    1841.13721
      12.34375	     737.02612
      12.42188	    1186.10400
      12.50000	     581.51892
      12.57813	     140.12550
      12.65625	     514.61322
      12.73438	    1041.68799
      12.81250	     981.49329
      12.89063	     349.14191
      12.96875	    1672.48975
      13.04688	    1143.27612
      13.12500	    2402.22852
      13.20313	    2223.41187
      13.28125	    1283.78577
      13.35938	     737.76892
      13.43750	     625.44824
      13.51563	     510.28430
      13.59375	    1317.72534
      13.67188	    1681.22437
      13.75000	     274.98718
      13.82813	    1234.69519
      13.90625	     132.94057
      13.98438	     397.05429
      14.06250	     616.88013
      14.14063	     434.91290
      14.21875	     921.72131
      14.29688	    1776.02454
      14.37500	     875.01276
      14.45313	     954.64905
      14.53125	     766.20129
      14.60938	     269.04456
      14.68750	     502.97128
      14.76563	     440.39444
      14.84375	     418.99332
      14.92188	    1140.53528
      15.00000	    1516.07324
      15.07813	    1140.04858
      15.15625	    1805.86572
      15.23438	    1208.88831
      15.31250	     769.10858
      15.39063	     555.32788
      15.46875	     242.37961
      15.54688	     265.35605
      15.62500	     404.36731
      15.70313	     329.71310
      15.78125	     804.91803
      15.85938	     360.50204
      15.93750	     249.20593
      16.01563	     297.52817
      16.09375	    1773.57837
      16.17188	    1497.18237
      16.25000	     752.89447
      16.32813	    1061.98767
      16.40625	     426.06299
      16.48438	     924.80786
      16.56250	     418.54507
      16.64063	     339.39548
      16.71875	     517.05939
      16.79688	    1328.44519
      16.87500	    1320.69666
      16.95313	    1613.65259
      17.03125	     239.04968
      17.10938	     727.67670
      17.18750	    1900.69153
      17.26563	    1944.17261
      17.34375	    1768.54504
      17.42188	     617.82788
      17.50000	     596.19617
      17.57813	    1589.08801
      17.65625	     761.27045
      17.73438	     660.19464
      17.81250	     807.76123
      17.89063	     503.30429
      17.96875	     903.18903
      18.04688	     972.38727
      18.12500	    1188.07629
      18.20313	     963.35809
      18.28125	    2811.50098
      18.35938	    3537.74316
      18.43750	     373.07889
      18.51563	     531.42926
      18.59375	    1623.77039
      18.67188	    1108.47839
      18.75000	     671.47797
      18.82813	     831.35242
      18.90625	     210.45082
      18.98438	     784.83606
      19.06250	     794.60809
      19.14063	    1333.23511
      19.21875	     907.18494
      19.29688	     483.38882
      19.37500	     512.46155
      19.45313	     421.28586
      19.53125	     373.34784
      19.60938	    1146.83655
      19.68750	     830.49432
      19.76563	     969.03174
      19.84375	     219.36475
      19.92188	     499.14188

Monitor Diode	   1840.14

"Cumulant 1.Order"
FluctuationFreq. [1/ms]	 1.4958E-002
DiffCoefficient [µm²/s]	 8.7371E-001
Hydrodyn. Radius [nm]	 2.3611E+002

"Cumulant 2.Order"
FluctuationFreq. [1/ms]	 1.4009E-002
DiffCoefficient [µm²/s]	 8.1827E-001
Hydrodyn. Radius [nm]	 2.5210E+002
Expansion Parameter µ2	-4.5377E-005

"Cumulant 3.Order"
FluctuationFreq. [1/ms]	 1.4206E-002
DiffCoefficient [µm²/s]	 8.2979E-001
Hydrodyn. Radius [nm]	 2.4860E+002
Expansion Parameter µ2	-2.1216E-005
Expansion Parameter µ3	 8.8684E-007

"StandardDeviation"
  1.25000E-004	  4.90333E-002
  2.50000E-004	  4.90334E-002
  3.75000E-004	  4.90336E-002
  5.00000E-004	  4.90337E-002
  6.25000E-004	  4.90339E-002
  7.50000E-004	  4.90340E-002
  8.75000E-004	  4.90342E-002
  1.00000E-003	  4.90343E-002
  1.12500E-003	  4.90340E-002
  1.25000E-003	  4.90351E-002
  1.37500E-003	  4.90341E-002
  1.50000E-003	  4.90345E-002
  1.62500E-003	  4.90349E-002
  1.75000E-003	  4.90342E-002
  1.87500E-003	  4.90340E-002
  2.00000E-003	  4.90306E-002
  2.25000E-003	  4.90305E-002
  2.50000E-003	  4.90311E-002
  2.75000E-003	  4.90310E-002
  3.00000E-003	  4.90307E-002
  3.25000E-003	  4.90305E-002
  3.50000E-003	  4.90309E-002
  3.75000E-003	  4.90305E-002
  4.00000E-003	  4.90292E-002
  4.50000E-003	  4.90285E-002
  5.00000E-003	  4.90288E-002
  5.50000E-003	  4.90291E-002
  6.00000E-003	  4.90286E-002
  6.50000E-003	  4.90292E-002
  7.00000E-003	  4.90289E-002
  7.50000E-003	  4.90294E-002
  8.00000E-003	  4.90282E-002
  9.00000E-003	  4.90281E-002
  1.00000E-002	  4.90281E-002
  1.10000E-002	  4.90280E-002
  1.20000E-002	  4.90281E-002
  1.30000E-002	  4.90282E-002
  1.40000E-002	  4.90282E-002
  1.50000E-002	  4.90284E-002
  1.60000E-002	  4.90277E-002
  1.80000E-002	  4.90270E-002
  2.00000E-002	  4.90275E-002
  2.20000E-002	  4.90275E-002
  2.40000E-002	  4.90274E-002
  2.60000E-002	  4.90275E-002
  2.80000E-002	  4.90276E-002
  3.00000E-002	  4.90277E-002
  3.20000E-002	  4.90274E-002
  3.60000E-002	  4.90267E-002
  4.00000E-002	  4.90269E-002
  4.40000E-002	  4.90270E-002
  4.80000E-002	  4.90274E-002
  5.20000E-002	  4.90272E-002
  5.60000E-002	  4.90276E-002
  6.00000E-002	  4.90276E-002
  6.40000E-002	  4.90271E-002
  7.20000E-002	  4.90256E-002
  8.00000E-002	  4.90260E-002
  8.80000E-002	  4.90264E-002
  9.60000E-002	  4.90266E-002
  1.04000E-001	  4.90269E-002
  1.12000E-001	  4.90273E-002
  1.20000E-001	  4.90276E-002
  1.28000E-001	  4.90266E-002
  1.44000E-001	  4.90238E-002
  1.60000E-001	  4.90244E-002
  1.76000E-001	  4.90249E-002
  1.92000E-001	  4.90255E-002
  2.08000E-001	  4.90259E-002
  2.24000E-001	  4.90265E-002
  2.40000E-001	  4.90269E-002
  2.56000E-001	  4.90260E-002
  2.88000E-001	  4.90201E-002
  3.20000E-001	  4.90211E-002
  3.52000E-001	  4.90220E-002
  3.84000E-001	  4.90228E-002
  4.16000E-001	  4.90235E-002
  4.48000E-001	  4.90243E-002
  4.80000E-001	  4.90248E-002
  5.12000E-001	  4.90201E-002
  5.76000E-001	  4.90049E-002
  6.40000E-001	  4.90062E-002
  7.04000E-001	  4.90075E-002
  7.68000E-001	  4.90083E-002
  8.32000E-001	  4.90090E-002
  8.96000E-001	  4.90095E-002
  9.60000E-001	  4.90099E-002
  1.02400E+000	  4.90190E-002
  1.15200E+000	  4.89929E-002
  1.28000E+000	  4.89933E-002
  1.40800E+000	  4.89930E-002
  1.53600E+000	  4.89917E-002
  1.66400E+000	  4.89872E-002
  1.79200E+000	  4.89853E-002
  1.92000E+000	  4.89743E-002
  2.01600E+000	  4.89071E-002
  2.27200E+000	  4.88576E-002
  2.52800E+000	  4.88552E-002
  2.78400E+000	  4.88478E-002
  3.04000E+000	  4.88408E-002
  3.29600E+000	  4.88317E-002
  3.55200E+000	  4.88210E-002
  3.80800E+000	  4.88271E-002
  4.06400E+000	  4.88116E-002
  4.57600E+000	  4.87424E-002
  5.08800E+000	  4.86976E-002
  5.60000E+000	  4.86457E-002
  6.11200E+000	  4.85870E-002
  6.62400E+000	  4.85291E-002
  7.13600E+000	  4.84649E-002
  7.64800E+000	  4.83936E-002
  8.16000E+000	  4.82927E-002
  9.18400E+000	  4.78552E-002
  1.02080E+001	  4.76921E-002
  1.12320E+001	  4.75197E-002
  1.22560E+001	  4.73222E-002
  1.32800E+001	  4.72252E-002
  1.43040E+001	  4.69928E-002
  1.53280E+001	  4.67536E-002
  1.63520E+001	  4.63849E-002
  1.84000E+001	  4.55662E-002
  2.04480E+001	  4.50111E-002
  2.24960E+001	  4.45811E-002
  2.45440E+001	  4.39846E-002
  2.65920E+001	  4.32852E-002
  2.86400E+001	  4.27583E-002
  3.06880E+001	  4.22347E-002
  3.27360E+001	  4.14135E-002
  3.68320E+001	  3.99886E-002
  4.09280E+001	  3.89311E-002
  4.50240E+001	  3.77524E-002
  4.91200E+001	  3.67060E-002
  5.32160E+001	  3.56557E-002
  5.73120E+001	  3.47671E-002
  6.14080E+001	  3.39748E-002
  6.55040E+001	  3.35513E-002
  7.36960E+001	  3.22225E-002
  8.18880E+001	  2.69455E-002
  9.00800E+001	  2.69455E-002
  9.82720E+001	  2.69455E-002
  1.06464E+002	  2.69455E-002
  1.14656E+002	  2.69455E-002
  1.22848E+002	  2.69455E-002
  1.31040E+002	  2.66860E-002
  1.47424E+002	  2.66860E-002
  1.63808E+002	  2.66860E-002
  1.80192E+002	  2.66860E-002
  1.96576E+002	  2.66860E-002
  2.12960E+002	  2.66860E-002
  2.29344E+002	  2.66860E-002
  2.45728E+002	  2.66860E-002
  2.62112E+002	  2.52826E-002
  2.94880E+002	  2.52826E-002
  3.27648E+002	  2.52826E-002
  3.60416E+002	  2.52826E-002
  3.93184E+002	  2.52826E-002
  4.25952E+002	  2.52826E-002
  4.58720E+002	  2.52826E-002
  4.91488E+002	  2.52826E-002
