ALV-6000/E-WIN Data
Date :	"11/13/2025"
Time :	"1:17:08 PM"
Samplename : 	"NaCl - 465nm"
SampMemo(0) : 	""
SampMemo(1) : 	""
SampMemo(2) : 	""
SampMemo(3) : 	""
SampMemo(4) : 	""
SampMemo(5) : 	""
SampMemo(6) : 	""
SampMemo(7) : 	""
SampMemo(8) : 	""
SampMemo(9) : 	""
Temperature [K] :	     292.33216
Viscosity [cp]  :	       1.02207
Refractive Index:	       1.33200
Wavelength [nm] :	     632.80000
Angle [°]       :	     145.99900
Duration [s]    :	        20
Runs            :	         1
Mode            :	"SINGLE AUTO CH0 "
MeanCR0 [kHz]   :	     227.10825
MeanCR1 [kHz]   :	       0.00000

"Correlation"
  1.25000E-004	  1.84906E+000
  2.50000E-004	  2.41918E+000
  3.75000E-004	  2.40993E+000
  5.00000E-004	  2.41270E+000
  6.25000E-004	  2.41177E+000
  7.50000E-004	  2.40874E+000
  8.75000E-004	  2.40048E+000
  1.00000E-003	  2.39264E+000
  1.12500E-003	  2.39932E+000
  1.25000E-003	  2.39396E+000
  1.37500E-003	  2.39798E+000
  1.50000E-003	  2.39766E+000
  1.62500E-003	  2.39987E+000
  1.75000E-003	  2.40243E+000
  1.87500E-003	  2.39616E+000
  2.00000E-003	  2.39693E+000
  2.25000E-003	  2.40005E+000
  2.50000E-003	  2.39550E+000
  2.75000E-003	  2.39835E+000
  3.00000E-003	  2.40088E+000
  3.25000E-003	  2.38992E+000
  3.50000E-003	  2.40163E+000
  3.75000E-003	  2.39028E+000
  4.00000E-003	  2.39487E+000
  4.50000E-003	  2.38667E+000
  5.00000E-003	  2.39101E+000
  5.50000E-003	  2.39082E+000
  6.00000E-003	  2.38665E+000
  6.50000E-003	  2.38751E+000
  7.00000E-003	  2.38919E+000
  7.50000E-003	  2.38875E+000
  8.00000E-003	  2.38443E+000
  9.00000E-003	  2.38180E+000
  1.00000E-002	  2.38046E+000
  1.10000E-002	  2.38159E+000
  1.20000E-002	  2.37725E+000
  1.30000E-002	  2.37720E+000
  1.40000E-002	  2.37612E+000
  1.50000E-002	  2.37560E+000
  1.60000E-002	  2.37091E+000
  1.80000E-002	  2.36750E+000
  2.00000E-002	  2.36649E+000
  2.20000E-002	  2.36341E+000
  2.40000E-002	  2.36448E+000
  2.60000E-002	  2.35833E+000
  2.80000E-002	  2.35489E+000
  3.00000E-002	  2.35586E+000
  3.20000E-002	  2.34981E+000
  3.60000E-002	  2.34259E+000
  4.00000E-002	  2.33980E+000
  4.40000E-002	  2.33147E+000
  4.80000E-002	  2.32700E+000
  5.20000E-002	  2.31860E+000
  5.60000E-002	  2.31400E+000
  6.00000E-002	  2.30957E+000
  6.40000E-002	  2.30092E+000
  7.20000E-002	  2.28830E+000
  8.00000E-002	  2.27817E+000
  8.80000E-002	  2.26634E+000
  9.60000E-002	  2.25417E+000
  1.04000E-001	  2.24269E+000
  1.12000E-001	  2.23170E+000
  1.20000E-001	  2.22031E+000
  1.28000E-001	  2.20866E+000
  1.44000E-001	  2.18603E+000
  1.60000E-001	  2.16410E+000
  1.76000E-001	  2.14358E+000
  1.92000E-001	  2.12086E+000
  2.08000E-001	  2.10088E+000
  2.24000E-001	  2.07883E+000
  2.40000E-001	  2.05830E+000
  2.56000E-001	  2.03642E+000
  2.88000E-001	  1.99615E+000
  3.20000E-001	  1.95685E+000
  3.52000E-001	  1.91827E+000
  3.84000E-001	  1.88104E+000
  4.16000E-001	  1.84453E+000
  4.48000E-001	  1.80968E+000
  4.80000E-001	  1.77514E+000
  5.12000E-001	  1.74072E+000
  5.76000E-001	  1.67535E+000
  6.40000E-001	  1.61387E+000
  7.04000E-001	  1.55539E+000
  7.68000E-001	  1.49983E+000
  8.32000E-001	  1.44660E+000
  8.96000E-001	  1.39515E+000
  9.60000E-001	  1.34660E+000
  1.02400E+000	  1.29978E+000
  1.15200E+000	  1.21452E+000
  1.28000E+000	  1.13662E+000
  1.40800E+000	  1.06658E+000
  1.53600E+000	  1.00253E+000
  1.66400E+000	  9.43957E-001
  1.79200E+000	  8.90947E-001
  1.92000E+000	  8.42542E-001
  2.01600E+000	  8.10832E-001
  2.27200E+000	  7.29853E-001
  2.52800E+000	  6.59571E-001
  2.78400E+000	  6.00009E-001
  3.04000E+000	  5.49731E-001
  3.29600E+000	  5.06030E-001
  3.55200E+000	  4.65387E-001
  3.80800E+000	  4.29327E-001
  4.06400E+000	  3.98400E-001
  4.57600E+000	  3.50430E-001
  5.08800E+000	  3.11975E-001
  5.60000E+000	  2.84168E-001
  6.11200E+000	  2.62597E-001
  6.62400E+000	  2.46872E-001
  7.13600E+000	  2.34431E-001
  7.64800E+000	  2.15639E-001
  8.16000E+000	  1.97132E-001
  9.18400E+000	  1.69085E-001
  1.02080E+001	  1.46096E-001
  1.12320E+001	  1.23652E-001
  1.22560E+001	  1.06506E-001
  1.32800E+001	  1.00145E-001
  1.43040E+001	  9.23133E-002
  1.53280E+001	  8.85218E-002
  1.63520E+001	  8.82156E-002
  1.84000E+001	  7.93281E-002
  2.04480E+001	  5.45619E-002
  2.24960E+001	  4.08838E-002
  2.45440E+001	  3.69694E-002
  2.65920E+001	  3.55724E-002
  2.86400E+001	  2.52609E-002
  3.06880E+001	  1.19503E-002
  3.27360E+001	  4.06926E-003
  3.68320E+001	 -7.43438E-003
  4.09280E+001	 -1.98717E-002
  4.50240E+001	 -1.75480E-002
  4.91200E+001	 -2.59051E-003
  5.32160E+001	  7.11343E-004
  5.73120E+001	 -6.64290E-003
  6.14080E+001	 -1.28289E-002
  6.55040E+001	 -8.06059E-003
  7.36960E+001	 -7.43209E-003
  8.18880E+001	 -8.34166E-003
  9.00800E+001	 -7.55771E-003
  9.82720E+001	  5.27004E-003
  1.06464E+002	 -4.15232E-003
  1.14656E+002	 -3.46904E-003
  1.22848E+002	 -1.61113E-002
  1.31040E+002	 -1.59483E-002
  1.47424E+002	 -4.76660E-003
  1.63808E+002	  4.88385E-003
  1.80192E+002	  1.88618E-002
  1.96576E+002	  2.49599E-004
  2.12960E+002	  1.07799E-002
  2.29344E+002	 -1.39266E-002
  2.45728E+002	  8.00930E-003
  2.62112E+002	  5.04478E-003
  2.94880E+002	 -7.35948E-003
  3.27648E+002	  7.01900E-003
  3.60416E+002	  5.28997E-003
  3.93184E+002	 -1.60138E-002
  4.25952E+002	 -1.08185E-002
  4.58720E+002	  4.58705E-003
  4.91488E+002	 -3.02750E-003
  5.24256E+002	  7.83145E-003
  5.89792E+002	  4.26110E-004
  6.55328E+002	 -2.13937E-004
  7.20864E+002	 -1.15871E-002
  7.86400E+002	 -1.79195E-003
  8.51936E+002	 -1.17698E-002
  9.17472E+002	 -6.34366E-003
  9.83008E+002	 -3.84836E-003
  1.04854E+003	  1.44196E-003
  1.17962E+003	  8.03887E-005
  1.31069E+003	 -8.16051E-003
  1.44176E+003	  4.50944E-003
  1.57283E+003	  3.27201E-003
  1.70390E+003	  5.08612E-003
  1.83498E+003	 -3.40006E-003
  1.96605E+003	 -1.62856E-003
  2.09712E+003	 -8.32283E-004
  2.35926E+003	 -5.07708E-003
  2.62141E+003	  5.37589E-003
  2.88355E+003	  3.31162E-004
  3.14570E+003	  5.22237E-003
  3.40784E+003	 -7.21904E-003
  3.66998E+003	 -2.00808E-004
  3.93213E+003	 -1.01203E-002
  4.19427E+003	  2.44916E-003
  4.71856E+003	  5.05388E-003
  5.24285E+003	 -2.52449E-003
  5.76714E+003	 -3.02672E-003
  6.29142E+003	  2.16467E-003
  6.81571E+003	  3.53837E-004
  7.34000E+003	 -2.03499E-003
  7.86429E+003	  5.39674E-003

"Count Rate"
       0.07813	     311.68033
       0.15625	     325.87088
       0.23438	     263.84476
       0.31250	     249.98718
       0.39063	     314.75409
       0.46875	     270.61987
       0.54688	     198.39908
       0.62500	     177.42059
       0.70313	     161.23207
       0.78125	     157.99181
       0.85938	     175.28175
       0.93750	     164.31865
       1.01563	     249.66701
       1.09375	     227.93288
       1.17188	     193.39139
       1.25000	     188.76793
       1.32813	     240.06146
       1.40625	     153.75256
       1.48438	     175.53790
       1.56250	     208.46567
       1.64063	     173.20695
       1.71875	     178.09938
       1.79688	     177.20287
       1.87500	     188.55020
       1.95313	     190.65060
       2.03125	     236.32172
       2.10938	     233.92674
       2.18750	     275.66599
       2.26563	     216.09886
       2.34375	     198.09169
       2.42188	     181.91599
       2.50000	     195.63268
       2.57813	     298.78329
       2.65625	     338.20441
       2.73438	     205.73770
       2.81250	     203.98309
       2.89063	     269.09579
       2.96875	     187.94826
       3.04688	     156.32684
       3.12500	     211.01434
       3.20313	     178.54764
       3.28125	     200.55070
       3.35938	     429.41852
       3.43750	     229.49538
       3.51563	     172.02869
       3.59375	     190.91957
       3.67188	     364.17776
       3.75000	     240.44569
       3.82813	     215.74026
       3.90625	     201.33195
       3.98438	     175.35860
       4.06250	     156.87756
       4.14063	     158.23514
       4.21875	     242.48206
       4.29688	     219.36475
       4.37500	     192.54610
       4.45313	     208.06863
       4.53125	     231.28842
       4.60938	     186.69313
       4.68750	     168.37859
       4.76563	     211.42418
       4.84375	     263.74231
       4.92188	     286.96210
       5.00000	     287.16699
       5.07813	     208.87550
       5.15625	     262.55121
       5.23438	     373.55276
       5.31250	     212.20543
       5.39063	     210.47643
       5.46875	     334.56711
       5.54688	     182.53073
       5.62500	     151.48566
       5.70313	     158.31198
       5.78125	     214.21619
       5.85938	     181.49333
       5.93750	     198.30942
       6.01563	     323.46310
       6.09375	     186.69313
       6.17188	     227.53586
       6.25000	     249.25717
       6.32813	     205.53278
       6.40625	     147.32326
       6.48438	     267.50769
       6.56250	     189.57478
       6.64063	     162.42316
       6.71875	     211.50102
       6.79688	     314.43390
       6.87500	     191.55994
       6.95313	     231.94159
       7.03125	     247.70747
       7.10938	     184.47745
       7.18750	     255.18698
       7.26563	     208.54251
       7.34375	     170.44057
       7.42188	     280.00769
       7.50000	     301.85706
       7.57813	     251.46004
       7.65625	     210.70695
       7.73438	     242.17468
       7.81250	     298.10449
       7.89063	     219.04457
       7.96875	     222.52817
       8.04688	     246.92622
       8.12500	     216.82889
       8.20313	     234.18288
       8.28125	     160.60451
       8.35938	     182.87653
       8.43750	     288.97284
       8.51563	     165.40727
       8.59375	     213.96004
       8.67188	     233.86270
       8.75000	     207.95337
       8.82813	     289.93338
       8.90625	     125.25614
       8.98438	     265.80429
       9.06250	     197.57941
       9.14063	     205.46875
       9.21875	     201.70337
       9.29688	     274.64139
       9.37500	     211.27049
       9.45313	     197.56659
       9.53125	     322.98923
       9.60938	     435.16904
       9.68750	     191.17570
       9.76563	     179.35451
       9.84375	     173.38626
       9.92188	     255.39189
      10.00000	     227.40778
      10.07813	     284.34937
      10.15625	     248.64241
      10.23438	     239.30583
      10.31250	     184.43903
      10.39063	     156.87756
      10.46875	     186.29610
      10.54688	     225.81967
      10.62500	     152.80481
      10.70313	     230.99385
      10.78125	     195.21004
      10.85938	     193.49385
      10.93750	     193.66034
      11.01563	     197.79712
      11.09375	     223.70645
      11.17188	     200.24333
      11.25000	     246.70850
      11.32813	     191.35501
      11.40625	     259.09323
      11.48438	     182.92776
      11.56250	     166.68800
      11.64063	     206.41649
      11.71875	     236.09119
      11.79688	     226.92110
      11.87500	     190.24077
      11.95313	     329.82837
      12.03125	     189.44672
      12.10938	     225.62755
      12.18750	     205.51997
      12.26563	     180.05891
      12.34375	     263.15317
      12.42188	     161.18083
      12.50000	     216.82889
      12.57813	     165.35603
      12.65625	     258.92673
      12.73438	     254.73872
      12.81250	     320.26126
      12.89063	     198.37346
      12.96875	     209.04201
      13.04688	     233.76024
      13.12500	     275.10245
      13.20313	     133.47849
      13.28125	     196.08093
      13.35938	     241.04764
      13.43750	     148.68083
      13.51563	     166.88011
      13.59375	     341.43185
      13.67188	     172.47694
      13.75000	     199.71823
      13.82813	     220.17162
      13.90625	     199.18033
      13.98438	     232.06967
      14.06250	     217.73820
      14.14063	     330.94263
      14.21875	     270.27408
      14.29688	     237.57684
      14.37500	     277.17725
      14.45313	     171.64445
      14.53125	     197.41290
      14.60938	     179.45695
      14.68750	     347.73309
      14.76563	     283.29916
      14.84375	     273.62961
      14.92188	     240.77869
      15.00000	     278.81659
      15.07813	     184.86168
      15.15625	     243.58350
      15.23438	     353.04816
      15.31250	     253.47079
      15.39063	     236.07837
      15.46875	     309.23410
      15.54688	     322.38730
      15.62500	     186.61629
      15.70313	     200.69159
      15.78125	     235.78380
      15.85938	     198.96260
      15.93750	     216.08606
      16.01563	     238.48616
      16.09375	     210.23309
      16.17188	     275.39703
      16.25000	     275.33298
      16.32813	     218.87807
      16.40625	     233.37602
      16.48438	     213.34528
      16.56250	     168.92931
      16.64063	     232.46669
      16.71875	     155.30225
      16.79688	     237.33350
      16.87500	     227.27971
      16.95313	     237.14139
      17.03125	     174.14191
      17.10938	     177.86885
      17.18750	     293.09680
      17.26563	     225.51228
      17.34375	     272.95081
      17.42188	     259.05481
      17.50000	     212.00050
      17.57813	     222.60501
      17.65625	     282.83810
      17.73438	     284.70798
      17.81250	     297.73309
      17.89063	     214.25461
      17.96875	     211.61629
      18.04688	     196.79816
      18.12500	     193.39139
      18.20313	     262.97388
      18.28125	     183.67059
      18.35938	     168.04559
      18.43750	     212.25665
      18.51563	     179.93083
      18.59375	     259.27252
      18.67188	     277.10040
      18.75000	     264.29303
      18.82813	     217.98155
      18.90625	     185.38678
      18.98438	     330.35349
      19.06250	     313.72949
      19.14063	     287.70490
      19.21875	     235.73257
      19.29688	     228.12500
      19.37500	     286.27048
      19.45313	     218.73718
      19.53125	     166.67520
      19.60938	     187.50000
      19.68750	     339.81812
      19.76563	     310.46362
      19.84375	     192.57172
      19.92188	     189.24179

Monitor Diode	 234579.27

"Cumulant 1.Order"
FluctuationFreq. [1/ms]	 2.3475E-001
DiffCoefficient [µm²/s]	 3.6688E-001
Hydrodyn. Radius [nm]	 5.7075E+002

"Cumulant 2.Order"
FluctuationFreq. [1/ms]	 3.3212E-001
DiffCoefficient [µm²/s]	 5.1904E-001
Hydrodyn. Radius [nm]	 4.0343E+002
Expansion Parameter µ2	 4.9590E-002

"Cumulant 3.Order"
FluctuationFreq. [1/ms]	 3.4550E-001
DiffCoefficient [µm²/s]	 5.3997E-001
Hydrodyn. Radius [nm]	 3.8780E+002
Expansion Parameter µ2	 6.7713E-002
Expansion Parameter µ3	 7.1806E-003

"StandardDeviation"
  1.25000E-004	  1.47394E-002
  2.50000E-004	  1.47402E-002
  3.75000E-004	  1.47410E-002
  5.00000E-004	  1.47418E-002
  6.25000E-004	  1.47424E-002
  7.50000E-004	  1.47432E-002
  8.75000E-004	  1.47439E-002
  1.00000E-003	  1.47446E-002
  1.12500E-003	  1.47416E-002
  1.25000E-003	  1.47424E-002
  1.37500E-003	  1.47418E-002
  1.50000E-003	  1.47418E-002
  1.62500E-003	  1.47404E-002
  1.75000E-003	  1.47402E-002
  1.87500E-003	  1.47401E-002
  2.00000E-003	  1.45042E-002
  2.25000E-003	  1.45044E-002
  2.50000E-003	  1.45043E-002
  2.75000E-003	  1.45045E-002
  3.00000E-003	  1.45040E-002
  3.25000E-003	  1.45039E-002
  3.50000E-003	  1.45047E-002
  3.75000E-003	  1.45043E-002
  4.00000E-003	  1.43854E-002
  4.50000E-003	  1.43844E-002
  5.00000E-003	  1.43845E-002
  5.50000E-003	  1.43846E-002
  6.00000E-003	  1.43845E-002
  6.50000E-003	  1.43845E-002
  7.00000E-003	  1.43845E-002
  7.50000E-003	  1.43846E-002
  8.00000E-003	  1.43240E-002
  9.00000E-003	  1.43227E-002
  1.00000E-002	  1.43229E-002
  1.10000E-002	  1.43228E-002
  1.20000E-002	  1.43230E-002
  1.30000E-002	  1.43228E-002
  1.40000E-002	  1.43228E-002
  1.50000E-002	  1.43227E-002
  1.60000E-002	  1.42921E-002
  1.80000E-002	  1.42899E-002
  2.00000E-002	  1.42898E-002
  2.20000E-002	  1.42896E-002
  2.40000E-002	  1.42891E-002
  2.60000E-002	  1.42895E-002
  2.80000E-002	  1.42892E-002
  3.00000E-002	  1.42891E-002
  3.20000E-002	  1.42727E-002
  3.60000E-002	  1.42684E-002
  4.00000E-002	  1.42675E-002
  4.40000E-002	  1.42680E-002
  4.80000E-002	  1.42674E-002
  5.20000E-002	  1.42681E-002
  5.60000E-002	  1.42675E-002
  6.00000E-002	  1.42667E-002
  6.40000E-002	  1.42565E-002
  7.20000E-002	  1.42478E-002
  8.00000E-002	  1.42482E-002
  8.80000E-002	  1.42481E-002
  9.60000E-002	  1.42487E-002
  1.04000E-001	  1.42486E-002
  1.12000E-001	  1.42481E-002
  1.20000E-001	  1.42479E-002
  1.28000E-001	  1.42403E-002
  1.44000E-001	  1.42246E-002
  1.60000E-001	  1.42251E-002
  1.76000E-001	  1.42250E-002
  1.92000E-001	  1.42254E-002
  2.08000E-001	  1.42245E-002
  2.24000E-001	  1.42266E-002
  2.40000E-001	  1.42263E-002
  2.56000E-001	  1.42241E-002
  2.88000E-001	  1.41964E-002
  3.20000E-001	  1.41968E-002
  3.52000E-001	  1.41985E-002
  3.84000E-001	  1.41978E-002
  4.16000E-001	  1.41985E-002
  4.48000E-001	  1.41947E-002
  4.80000E-001	  1.41929E-002
  5.12000E-001	  1.41779E-002
  5.76000E-001	  1.41479E-002
  6.40000E-001	  1.41399E-002
  7.04000E-001	  1.41277E-002
  7.68000E-001	  1.41109E-002
  8.32000E-001	  1.40917E-002
  8.96000E-001	  1.40709E-002
  9.60000E-001	  1.40493E-002
  1.02400E+000	  1.40559E-002
  1.15200E+000	  1.39408E-002
  1.28000E+000	  1.38865E-002
  1.40800E+000	  1.38196E-002
  1.53600E+000	  1.37471E-002
  1.66400E+000	  1.36788E-002
  1.79200E+000	  1.35948E-002
  1.92000E+000	  1.35006E-002
  2.01600E+000	  1.33882E-002
  2.27200E+000	  1.31870E-002
  2.52800E+000	  1.30300E-002
  2.78400E+000	  1.28816E-002
  3.04000E+000	  1.27212E-002
  3.29600E+000	  1.25628E-002
  3.55200E+000	  1.23986E-002
  3.80800E+000	  1.22438E-002
  4.06400E+000	  1.20128E-002
  4.57600E+000	  1.16982E-002
  5.08800E+000	  1.14558E-002
  5.60000E+000	  1.12593E-002
  6.11200E+000	  1.10848E-002
  6.62400E+000	  1.09304E-002
  7.13600E+000	  1.08030E-002
  7.64800E+000	  1.06654E-002
  8.16000E+000	  1.05498E-002
  9.18400E+000	  1.02808E-002
  1.02080E+001	  1.00162E-002
  1.12320E+001	  9.81069E-003
  1.22560E+001	  9.60382E-003
  1.32800E+001	  9.50363E-003
  1.43040E+001	  9.44066E-003
  1.53280E+001	  9.36296E-003
  1.63520E+001	  8.98755E-003
  1.84000E+001	  8.76269E-003
  2.04480E+001	  8.48910E-003
  2.24960E+001	  8.39884E-003
  2.45440E+001	  8.26835E-003
  2.65920E+001	  8.22713E-003
  2.86400E+001	  7.01413E-003
  3.06880E+001	  7.01413E-003
  3.27360E+001	  6.45166E-003
  3.68320E+001	  6.45166E-003
  4.09280E+001	  6.45166E-003
  4.50240E+001	  6.45166E-003
  4.91200E+001	  6.45166E-003
  5.32160E+001	  6.45166E-003
  5.73120E+001	  6.45166E-003
  6.14080E+001	  6.45166E-003
  6.55040E+001	  6.09291E-003
  7.36960E+001	  6.09291E-003
  8.18880E+001	  6.09291E-003
  9.00800E+001	  6.09291E-003
  9.82720E+001	  6.09291E-003
  1.06464E+002	  6.09291E-003
  1.14656E+002	  6.09291E-003
  1.22848E+002	  6.09291E-003
  1.31040E+002	  5.33768E-003
  1.47424E+002	  5.33768E-003
  1.63808E+002	  5.33768E-003
  1.80192E+002	  5.33768E-003
  1.96576E+002	  5.33768E-003
  2.12960E+002	  5.33768E-003
  2.29344E+002	  5.33768E-003
  2.45728E+002	  5.33768E-003
  2.62112E+002	  4.54040E-003
  2.94880E+002	  4.54040E-003
  3.27648E+002	  4.54040E-003
  3.60416E+002	  4.54040E-003
  3.93184E+002	  4.54040E-003
  4.25952E+002	  4.54040E-003
  4.58720E+002	  4.54040E-003
  4.91488E+002	  4.54040E-003
