ALV-6000/E-WIN Data
Date :	"11/13/2025"
Time :	"12:10:43 PM"
Samplename : 	"NaCl - 465nm"
SampMemo(0) : 	""
SampMemo(1) : 	""
SampMemo(2) : 	""
SampMemo(3) : 	""
SampMemo(4) : 	""
SampMemo(5) : 	""
SampMemo(6) : 	""
SampMemo(7) : 	""
SampMemo(8) : 	""
SampMemo(9) : 	""
Temperature [K] :	     292.14194
Viscosity [cp]  :	       1.02688
Refractive Index:	       1.33200
Wavelength [nm] :	     632.80000
Angle [°]       :	     107.99900
Duration [s]    :	        20
Runs            :	         1
Mode            :	"SINGLE AUTO CH0 "
MeanCR0 [kHz]   :	     434.29324
MeanCR1 [kHz]   :	       0.00000

"Correlation"
  1.25000E-004	  6.21280E-001
  2.50000E-004	  8.08700E-001
  3.75000E-004	  8.05606E-001
  5.00000E-004	  8.06722E-001
  6.25000E-004	  8.06283E-001
  7.50000E-004	  8.05287E-001
  8.75000E-004	  8.01463E-001
  1.00000E-003	  8.04835E-001
  1.12500E-003	  8.03232E-001
  1.25000E-003	  8.02115E-001
  1.37500E-003	  8.02628E-001
  1.50000E-003	  8.02564E-001
  1.62500E-003	  7.99711E-001
  1.75000E-003	  7.99298E-001
  1.87500E-003	  8.04657E-001
  2.00000E-003	  8.05064E-001
  2.25000E-003	  8.03932E-001
  2.50000E-003	  8.02107E-001
  2.75000E-003	  8.01204E-001
  3.00000E-003	  8.00993E-001
  3.25000E-003	  8.02776E-001
  3.50000E-003	  8.00735E-001
  3.75000E-003	  8.00015E-001
  4.00000E-003	  8.00976E-001
  4.50000E-003	  8.01304E-001
  5.00000E-003	  8.00823E-001
  5.50000E-003	  8.00418E-001
  6.00000E-003	  7.99348E-001
  6.50000E-003	  7.99552E-001
  7.00000E-003	  7.99502E-001
  7.50000E-003	  8.01268E-001
  8.00000E-003	  7.98806E-001
  9.00000E-003	  7.97893E-001
  1.00000E-002	  7.97514E-001
  1.10000E-002	  7.96257E-001
  1.20000E-002	  7.96394E-001
  1.30000E-002	  7.95811E-001
  1.40000E-002	  7.96010E-001
  1.50000E-002	  7.95060E-001
  1.60000E-002	  7.94892E-001
  1.80000E-002	  7.93976E-001
  2.00000E-002	  7.92594E-001
  2.20000E-002	  7.90600E-001
  2.40000E-002	  7.90050E-001
  2.60000E-002	  7.88857E-001
  2.80000E-002	  7.86973E-001
  3.00000E-002	  7.86856E-001
  3.20000E-002	  7.86008E-001
  3.60000E-002	  7.83371E-001
  4.00000E-002	  7.81318E-001
  4.40000E-002	  7.79676E-001
  4.80000E-002	  7.76423E-001
  5.20000E-002	  7.74787E-001
  5.60000E-002	  7.72374E-001
  6.00000E-002	  7.69744E-001
  6.40000E-002	  7.67948E-001
  7.20000E-002	  7.64176E-001
  8.00000E-002	  7.59400E-001
  8.80000E-002	  7.54685E-001
  9.60000E-002	  7.50610E-001
  1.04000E-001	  7.46867E-001
  1.12000E-001	  7.42306E-001
  1.20000E-001	  7.38360E-001
  1.28000E-001	  7.34217E-001
  1.44000E-001	  7.25925E-001
  1.60000E-001	  7.17717E-001
  1.76000E-001	  7.10242E-001
  1.92000E-001	  7.01894E-001
  2.08000E-001	  6.94224E-001
  2.24000E-001	  6.86515E-001
  2.40000E-001	  6.78635E-001
  2.56000E-001	  6.71671E-001
  2.88000E-001	  6.56700E-001
  3.20000E-001	  6.42394E-001
  3.52000E-001	  6.28483E-001
  3.84000E-001	  6.14947E-001
  4.16000E-001	  6.01592E-001
  4.48000E-001	  5.88263E-001
  4.80000E-001	  5.75788E-001
  5.12000E-001	  5.63296E-001
  5.76000E-001	  5.39014E-001
  6.40000E-001	  5.16062E-001
  7.04000E-001	  4.93696E-001
  7.68000E-001	  4.72245E-001
  8.32000E-001	  4.51685E-001
  8.96000E-001	  4.31960E-001
  9.60000E-001	  4.13107E-001
  1.02400E+000	  3.95566E-001
  1.15200E+000	  3.62026E-001
  1.28000E+000	  3.31314E-001
  1.40800E+000	  3.03883E-001
  1.53600E+000	  2.78516E-001
  1.66400E+000	  2.55334E-001
  1.79200E+000	  2.34130E-001
  1.92000E+000	  2.14992E-001
  2.01600E+000	  2.00944E-001
  2.27200E+000	  1.71275E-001
  2.52800E+000	  1.45348E-001
  2.78400E+000	  1.22547E-001
  3.04000E+000	  1.03504E-001
  3.29600E+000	  8.81339E-002
  3.55200E+000	  7.56408E-002
  3.80800E+000	  6.45461E-002
  4.06400E+000	  5.55230E-002
  4.57600E+000	  3.96695E-002
  5.08800E+000	  2.74012E-002
  5.60000E+000	  2.00380E-002
  6.11200E+000	  1.39429E-002
  6.62400E+000	  1.01450E-002
  7.13600E+000	  6.99316E-003
  7.64800E+000	  4.42479E-003
  8.16000E+000	  3.72207E-003
  9.18400E+000	  1.31949E-003
  1.02080E+001	 -5.19564E-003
  1.12320E+001	 -6.91972E-003
  1.22560E+001	 -1.88688E-003
  1.32800E+001	  2.24449E-004
  1.43040E+001	  1.41708E-004
  1.53280E+001	 -3.37016E-003
  1.63520E+001	 -5.19424E-003
  1.84000E+001	 -4.21260E-003
  2.04480E+001	 -1.91772E-003
  2.24960E+001	 -3.82261E-003
  2.45440E+001	 -4.62135E-003
  2.65920E+001	 -2.45366E-003
  2.86400E+001	 -5.16865E-003
  3.06880E+001	 -5.92672E-003
  3.27360E+001	 -1.25077E-003
  3.68320E+001	 -4.75206E-003
  4.09280E+001	 -2.09005E-003
  4.50240E+001	  4.61771E-003
  4.91200E+001	  6.30648E-003
  5.32160E+001	 -3.69677E-003
  5.73120E+001	  1.94078E-005
  6.14080E+001	  1.20236E-005
  6.55040E+001	  4.46250E-003
  7.36960E+001	  3.80527E-003
  8.18880E+001	 -5.70408E-003
  9.00800E+001	 -8.06070E-003
  9.82720E+001	 -9.10489E-003
  1.06464E+002	  3.45755E-003
  1.14656E+002	  3.96451E-003
  1.22848E+002	  8.46638E-003
  1.31040E+002	  9.05508E-003
  1.47424E+002	 -4.19337E-004
  1.63808E+002	  1.78877E-003
  1.80192E+002	 -1.56455E-003
  1.96576E+002	 -4.31764E-003
  2.12960E+002	  1.66863E-003
  2.29344E+002	 -1.08156E-003
  2.45728E+002	 -3.10304E-003
  2.62112E+002	 -1.55124E-003
  2.94880E+002	 -1.30865E-003
  3.27648E+002	 -4.11605E-003
  3.60416E+002	  1.27788E-003
  3.93184E+002	 -2.40175E-003
  4.25952E+002	 -1.24534E-003
  4.58720E+002	 -2.14050E-003
  4.91488E+002	  1.27325E-003
  5.24256E+002	 -3.24252E-003
  5.89792E+002	  1.15365E-004
  6.55328E+002	  2.48472E-003
  7.20864E+002	 -8.02374E-004
  7.86400E+002	 -3.80273E-003
  8.51936E+002	  1.39676E-004
  9.17472E+002	 -8.98597E-004
  9.83008E+002	  2.28634E-003
  1.04854E+003	  6.32086E-004
  1.17962E+003	  3.71575E-003
  1.31069E+003	  2.49060E-003
  1.44176E+003	 -1.76772E-003
  1.57283E+003	 -2.55215E-003
  1.70390E+003	 -1.10319E-003
  1.83498E+003	 -1.09333E-003
  1.96605E+003	  1.92371E-003
  2.09712E+003	  5.14495E-004
  2.35926E+003	 -2.59517E-004
  2.62141E+003	  2.86276E-004
  2.88355E+003	 -2.04026E-003
  3.14570E+003	  1.34142E-003
  3.40784E+003	 -1.42269E-003
  3.66998E+003	  1.61739E-003
  3.93213E+003	 -1.75375E-003
  4.19427E+003	 -4.55218E-004
  4.71856E+003	 -2.83074E-004
  5.24285E+003	 -1.02534E-003
  5.76714E+003	  1.29210E-003
  6.29142E+003	 -9.45820E-004
  6.81571E+003	 -3.99612E-004
  7.34000E+003	 -3.38700E-004
  7.86429E+003	  1.06974E-003

"Count Rate"
       0.07813	     380.27664
       0.15625	     389.77969
       0.23438	     437.10297
       0.31250	     392.66138
       0.39063	     423.45029
       0.46875	     446.08093
       0.54688	     465.57376
       0.62500	     387.24384
       0.70313	     496.99026
       0.78125	     367.53329
       0.85938	     520.85040
       0.93750	     359.50305
       1.01563	     476.95950
       1.09375	     416.67520
       1.17188	     457.10809
       1.25000	     331.46771
       1.32813	     502.52304
       1.40625	     482.90213
       1.48438	     311.93646
       1.56250	     485.23309
       1.64063	     464.77969
       1.71875	     474.18033
       1.79688	     406.04507
       1.87500	     516.63678
       1.95313	     456.10910
       2.03125	     349.19312
       2.10938	     423.34784
       2.18750	     364.24179
       2.26563	     393.96771
       2.34375	     502.54865
       2.42188	     431.57016
       2.50000	     413.56299
       2.57813	     385.42520
       2.65625	     379.87961
       2.73438	     487.62805
       2.81250	     554.75153
       2.89063	     445.33810
       2.96875	     508.08145
       3.04688	     576.61371
       3.12500	     478.85501
       3.20313	     581.78790
       3.28125	     427.71515
       3.35938	     482.91495
       3.43750	     506.85193
       3.51563	     390.61218
       3.59375	     450.46106
       3.67188	     413.48615
       3.75000	     361.34732
       3.82813	     497.13113
       3.90625	     350.94772
       3.98438	     438.74231
       4.06250	     484.32376
       4.14063	     408.68338
       4.21875	     426.67776
       4.29688	     483.92673
       4.37500	     357.17212
       4.45313	     429.11115
       4.53125	     408.77304
       4.60938	     512.92261
       4.68750	     401.71619
       4.76563	     425.10245
       4.84375	     444.80020
       4.92188	     631.57019
       5.00000	     358.01740
       5.07813	     493.73718
       5.15625	     451.60092
       5.23438	     397.74588
       5.31250	     476.47284
       5.39063	     384.73358
       5.46875	     465.47128
       5.54688	     393.75000
       5.62500	     448.10449
       5.70313	     301.03738
       5.78125	     407.14651
       5.85938	     480.11014
       5.93750	     446.88779
       6.01563	     497.84836
       6.09375	     329.53381
       6.17188	     394.41599
       6.25000	     382.06967
       6.32813	     303.29147
       6.40625	     397.60501
       6.48438	     607.42828
       6.56250	     470.01791
       6.64063	     403.48358
       6.71875	     376.01178
       6.79688	     418.95490
       6.87500	     498.57837
       6.95313	     346.20901
       7.03125	     405.98105
       7.10938	     472.77151
       7.18750	     352.01074
       7.26563	     431.08350
       7.34375	     312.06454
       7.42188	     401.98514
       7.50000	     458.74744
       7.57813	     286.68033
       7.65625	     306.91599
       7.73438	     392.11066
       7.81250	     619.73615
       7.89063	     377.16443
       7.96875	     486.15521
       8.04688	     392.93033
       8.12500	     434.68237
       8.20313	     461.16803
       8.28125	     474.34680
       8.35938	     353.61166
       8.43750	     517.55890
       8.51563	     467.58450
       8.59375	     414.86935
       8.67188	     424.50049
       8.75000	     465.25357
       8.82813	     458.70901
       8.90625	     416.84167
       8.98438	     418.60910
       9.06250	     393.19928
       9.14063	     420.96567
       9.21875	     445.35092
       9.29688	     452.11319
       9.37500	     452.48462
       9.45313	     360.61731
       9.53125	     559.82324
       9.60938	     411.32172
       9.68750	     478.12500
       9.76563	     353.82941
       9.84375	     452.25409
       9.92188	     370.03073
      10.00000	     498.89856
      10.07813	     379.64908
      10.15625	     338.26843
      10.23438	     454.62344
      10.31250	     361.50101
      10.39063	     335.52765
      10.46875	     432.30020
      10.54688	     427.89447
      10.62500	     309.23410
      10.70313	     494.37753
      10.78125	     528.71411
      10.85938	     509.90009
      10.93750	     514.52356
      11.01563	     462.14139
      11.09375	     409.79764
      11.17188	     330.12296
      11.25000	     465.33041
      11.32813	     492.48206
      11.40625	     436.56506
      11.48438	     322.86115
      11.56250	     440.76587
      11.64063	     383.88831
      11.71875	     443.13522
      11.79688	     416.57272
      11.87500	     562.69208
      11.95313	     467.77661
      12.03125	     605.76331
      12.10938	     607.81250
      12.18750	     511.03995
      12.26563	     440.35602
      12.34375	     490.80429
      12.42188	     299.52612
      12.50000	     434.00357
      12.57813	     476.83145
      12.65625	     399.44928
      12.73438	     460.78381
      12.81250	     507.47949
      12.89063	     367.05942
      12.96875	     346.40112
      13.04688	     404.94363
      13.12500	     489.13934
      13.20313	     597.63062
      13.28125	     460.63010
      13.35938	     727.03638
      13.43750	     383.35040
      13.51563	     295.55582
      13.59375	     269.10861
      13.67188	     470.27408
      13.75000	     269.74896
      13.82813	     472.19516
      13.90625	     311.75717
      13.98438	     473.05325
      14.06250	     403.29147
      14.14063	     528.04816
      14.21875	     379.04712
      14.29688	     515.42004
      14.37500	     368.27612
      14.45313	     440.38165
      14.53125	     430.81454
      14.60938	     434.75922
      14.68750	     443.45541
      14.76563	     364.58759
      14.84375	     404.35449
      14.92188	     404.99487
      15.00000	     503.67569
      15.07813	     476.51126
      15.15625	     456.57016
      15.23438	     409.29816
      15.31250	     481.80069
      15.39063	     494.67212
      15.46875	     369.67212
      15.54688	     314.45953
      15.62500	     377.54865
      15.70313	     418.54507
      15.78125	     437.30789
      15.85938	     524.29559
      15.93750	     379.67468
      16.01563	     372.07990
      16.09375	     395.01791
      16.17188	     426.98514
      16.25000	     409.11884
      16.32813	     578.31708
      16.40625	     360.11783
      16.48438	     393.95490
      16.56250	     475.01279
      16.64063	     483.55533
      16.71875	     333.04303
      16.79688	     399.20593
      16.87500	     430.12292
      16.95313	     405.45593
      17.03125	     536.28326
      17.10938	     495.14600
      17.18750	     423.55276
      17.26563	     473.79608
      17.34375	     612.46155
      17.42188	     321.11935
      17.50000	     474.93594
      17.57813	     351.54968
      17.65625	     418.31454
      17.73438	     365.80429
      17.81250	     487.44876
      17.89063	     547.74591
      17.96875	     512.34631
      18.04688	     417.36679
      18.12500	     408.13266
      18.20313	     402.53586
      18.28125	     507.36423
      18.35938	     335.29712
      18.43750	     491.48309
      18.51563	     490.93237
      18.59375	     442.16187
      18.67188	     502.16443
      18.75000	     429.43134
      18.82813	     364.31863
      18.90625	     428.99588
      18.98438	     365.09988
      19.06250	     419.31351
      19.14063	     467.41803
      19.21875	     642.80225
      19.29688	     452.33093
      19.37500	     379.41855
      19.45313	     351.05020
      19.53125	     339.13934
      19.60938	     473.61679
      19.68750	     458.96515
      19.76563	     371.08093
      19.84375	     380.67365
      19.92188	     469.07016

Monitor Diode	 228184.05

"Cumulant 1.Order"
FluctuationFreq. [1/ms]	 3.4224E-001
DiffCoefficient [µm²/s]	 7.4735E-001
Hydrodyn. Radius [nm]	 2.7869E+002

"Cumulant 2.Order"
FluctuationFreq. [1/ms]	 3.5122E-001
DiffCoefficient [µm²/s]	 7.6696E-001
Hydrodyn. Radius [nm]	 2.7157E+002
Expansion Parameter µ2	 9.2802E-003

"Cumulant 3.Order"
FluctuationFreq. [1/ms]	 3.4918E-001
DiffCoefficient [µm²/s]	 7.6251E-001
Hydrodyn. Radius [nm]	 2.7315E+002
Expansion Parameter µ2	 3.9548E-003
Expansion Parameter µ3	-4.2498E-003

"StandardDeviation"
  1.25000E-004	  1.31855E-002
  2.50000E-004	  1.31864E-002
  3.75000E-004	  1.31873E-002
  5.00000E-004	  1.31881E-002
  6.25000E-004	  1.31890E-002
  7.50000E-004	  1.31899E-002
  8.75000E-004	  1.31908E-002
  1.00000E-003	  1.31917E-002
  1.12500E-003	  1.31897E-002
  1.25000E-003	  1.31890E-002
  1.37500E-003	  1.31885E-002
  1.50000E-003	  1.31880E-002
  1.62500E-003	  1.31871E-002
  1.75000E-003	  1.31865E-002
  1.87500E-003	  1.31867E-002
  2.00000E-003	  1.31140E-002
  2.25000E-003	  1.31141E-002
  2.50000E-003	  1.31138E-002
  2.75000E-003	  1.31137E-002
  3.00000E-003	  1.31136E-002
  3.25000E-003	  1.31139E-002
  3.50000E-003	  1.31137E-002
  3.75000E-003	  1.31136E-002
  4.00000E-003	  1.30771E-002
  4.50000E-003	  1.30764E-002
  5.00000E-003	  1.30763E-002
  5.50000E-003	  1.30763E-002
  6.00000E-003	  1.30762E-002
  6.50000E-003	  1.30761E-002
  7.00000E-003	  1.30761E-002
  7.50000E-003	  1.30762E-002
  8.00000E-003	  1.30571E-002
  9.00000E-003	  1.30555E-002
  1.00000E-002	  1.30554E-002
  1.10000E-002	  1.30552E-002
  1.20000E-002	  1.30551E-002
  1.30000E-002	  1.30550E-002
  1.40000E-002	  1.30549E-002
  1.50000E-002	  1.30547E-002
  1.60000E-002	  1.30447E-002
  1.80000E-002	  1.30415E-002
  2.00000E-002	  1.30412E-002
  2.20000E-002	  1.30409E-002
  2.40000E-002	  1.30404E-002
  2.60000E-002	  1.30400E-002
  2.80000E-002	  1.30396E-002
  3.00000E-002	  1.30390E-002
  3.20000E-002	  1.30323E-002
  3.60000E-002	  1.30260E-002
  4.00000E-002	  1.30250E-002
  4.40000E-002	  1.30240E-002
  4.80000E-002	  1.30230E-002
  5.20000E-002	  1.30219E-002
  5.60000E-002	  1.30207E-002
  6.00000E-002	  1.30194E-002
  6.40000E-002	  1.30081E-002
  7.20000E-002	  1.29952E-002
  8.00000E-002	  1.29935E-002
  8.80000E-002	  1.29915E-002
  9.60000E-002	  1.29889E-002
  1.04000E-001	  1.29860E-002
  1.12000E-001	  1.29833E-002
  1.20000E-001	  1.29800E-002
  1.28000E-001	  1.29724E-002
  1.44000E-001	  1.29462E-002
  1.60000E-001	  1.29390E-002
  1.76000E-001	  1.29310E-002
  1.92000E-001	  1.29180E-002
  2.08000E-001	  1.29098E-002
  2.24000E-001	  1.29006E-002
  2.40000E-001	  1.28910E-002
  2.56000E-001	  1.28763E-002
  2.88000E-001	  1.28217E-002
  3.20000E-001	  1.27931E-002
  3.52000E-001	  1.27687E-002
  3.84000E-001	  1.27422E-002
  4.16000E-001	  1.27144E-002
  4.48000E-001	  1.26796E-002
  4.80000E-001	  1.26447E-002
  5.12000E-001	  1.25956E-002
  5.76000E-001	  1.24699E-002
  6.40000E-001	  1.23956E-002
  7.04000E-001	  1.23132E-002
  7.68000E-001	  1.22311E-002
  8.32000E-001	  1.21400E-002
  8.96000E-001	  1.20499E-002
  9.60000E-001	  1.19574E-002
  1.02400E+000	  1.19064E-002
  1.15200E+000	  1.16619E-002
  1.28000E+000	  1.14735E-002
  1.40800E+000	  1.12802E-002
  1.53600E+000	  1.10867E-002
  1.66400E+000	  1.08906E-002
  1.79200E+000	  1.06968E-002
  1.92000E+000	  1.05001E-002
  2.01600E+000	  1.03062E-002
  2.27200E+000	  9.92530E-003
  2.52800E+000	  9.59277E-003
  2.78400E+000	  9.27761E-003
  3.04000E+000	  8.98627E-003
  3.29600E+000	  8.72333E-003
  3.55200E+000	  8.48856E-003
  3.80800E+000	  8.27610E-003
  4.06400E+000	  7.97000E-003
  4.57600E+000	  7.62726E-003
  5.08800E+000	  6.69051E-003
  5.60000E+000	  6.69051E-003
  6.11200E+000	  6.69051E-003
  6.62400E+000	  6.69051E-003
  7.13600E+000	  6.69051E-003
  7.64800E+000	  6.69051E-003
  8.16000E+000	  6.66761E-003
  9.18400E+000	  6.66761E-003
  1.02080E+001	  6.66761E-003
  1.12320E+001	  6.66761E-003
  1.22560E+001	  6.66761E-003
  1.32800E+001	  6.66761E-003
  1.43040E+001	  6.66761E-003
  1.53280E+001	  6.66761E-003
  1.63520E+001	  6.22916E-003
  1.84000E+001	  6.22916E-003
  2.04480E+001	  6.22916E-003
  2.24960E+001	  6.22916E-003
  2.45440E+001	  6.22916E-003
  2.65920E+001	  6.22916E-003
  2.86400E+001	  6.22916E-003
  3.06880E+001	  6.22916E-003
  3.27360E+001	  5.54840E-003
  3.68320E+001	  5.54840E-003
  4.09280E+001	  5.54840E-003
  4.50240E+001	  5.54840E-003
  4.91200E+001	  5.54840E-003
  5.32160E+001	  5.54840E-003
  5.73120E+001	  5.54840E-003
  6.14080E+001	  5.54840E-003
  6.55040E+001	  4.81026E-003
  7.36960E+001	  4.81026E-003
  8.18880E+001	  4.81026E-003
  9.00800E+001	  4.81026E-003
  9.82720E+001	  4.81026E-003
  1.06464E+002	  4.81026E-003
  1.14656E+002	  4.81026E-003
  1.22848E+002	  4.81026E-003
  1.31040E+002	  3.76027E-003
  1.47424E+002	  3.76027E-003
  1.63808E+002	  3.76027E-003
  1.80192E+002	  3.76027E-003
  1.96576E+002	  3.76027E-003
  2.12960E+002	  3.76027E-003
  2.29344E+002	  3.76027E-003
  2.45728E+002	  3.76027E-003
  2.62112E+002	  2.79182E-003
  2.94880E+002	  2.79182E-003
  3.27648E+002	  2.79182E-003
  3.60416E+002	  2.79182E-003
  3.93184E+002	  2.79182E-003
  4.25952E+002	  2.79182E-003
  4.58720E+002	  2.79182E-003
  4.91488E+002	  2.79182E-003
