ALV-6000/E-WIN Data
Date :	"11/13/2025"
Time :	"1:26:23 PM"
Samplename : 	"NaCl - 465nm"
SampMemo(0) : 	""
SampMemo(1) : 	""
SampMemo(2) : 	""
SampMemo(3) : 	""
SampMemo(4) : 	""
SampMemo(5) : 	""
SampMemo(6) : 	""
SampMemo(7) : 	""
SampMemo(8) : 	""
SampMemo(9) : 	""
Temperature [K] :	     292.35069
Viscosity [cp]  :	       1.02160
Refractive Index:	       1.33200
Wavelength [nm] :	     632.80000
Angle [°]       :	     151.99900
Duration [s]    :	        20
Runs            :	         1
Mode            :	"SINGLE AUTO CH0 "
MeanCR0 [kHz]   :	     246.10550
MeanCR1 [kHz]   :	       0.00000

"Correlation"
  1.25000E-004	  6.27008E-001
  2.50000E-004	  8.19037E-001
  3.75000E-004	  8.11214E-001
  5.00000E-004	  8.11652E-001
  6.25000E-004	  8.11831E-001
  7.50000E-004	  8.10796E-001
  8.75000E-004	  8.05380E-001
  1.00000E-003	  8.07793E-001
  1.12500E-003	  8.06003E-001
  1.25000E-003	  8.07369E-001
  1.37500E-003	  8.16929E-001
  1.50000E-003	  8.08184E-001
  1.62500E-003	  8.03345E-001
  1.75000E-003	  8.07011E-001
  1.87500E-003	  8.09789E-001
  2.00000E-003	  8.04534E-001
  2.25000E-003	  8.04375E-001
  2.50000E-003	  8.05797E-001
  2.75000E-003	  7.99946E-001
  3.00000E-003	  8.07000E-001
  3.25000E-003	  7.99505E-001
  3.50000E-003	  8.01401E-001
  3.75000E-003	  8.05863E-001
  4.00000E-003	  8.02262E-001
  4.50000E-003	  8.01413E-001
  5.00000E-003	  8.03793E-001
  5.50000E-003	  8.03805E-001
  6.00000E-003	  8.01675E-001
  6.50000E-003	  8.01184E-001
  7.00000E-003	  7.99673E-001
  7.50000E-003	  8.03574E-001
  8.00000E-003	  8.01690E-001
  9.00000E-003	  8.02833E-001
  1.00000E-002	  8.01387E-001
  1.10000E-002	  8.00765E-001
  1.20000E-002	  8.00752E-001
  1.30000E-002	  7.99136E-001
  1.40000E-002	  7.99316E-001
  1.50000E-002	  7.98628E-001
  1.60000E-002	  7.98153E-001
  1.80000E-002	  7.98108E-001
  2.00000E-002	  7.96877E-001
  2.20000E-002	  7.96400E-001
  2.40000E-002	  7.95493E-001
  2.60000E-002	  7.94112E-001
  2.80000E-002	  7.94094E-001
  3.00000E-002	  7.92234E-001
  3.20000E-002	  7.92324E-001
  3.60000E-002	  7.90331E-001
  4.00000E-002	  7.88326E-001
  4.40000E-002	  7.87061E-001
  4.80000E-002	  7.87008E-001
  5.20000E-002	  7.83597E-001
  5.60000E-002	  7.82790E-001
  6.00000E-002	  7.81406E-001
  6.40000E-002	  7.78725E-001
  7.20000E-002	  7.76614E-001
  8.00000E-002	  7.73204E-001
  8.80000E-002	  7.70131E-001
  9.60000E-002	  7.66383E-001
  1.04000E-001	  7.64326E-001
  1.12000E-001	  7.60460E-001
  1.20000E-001	  7.57803E-001
  1.28000E-001	  7.54757E-001
  1.44000E-001	  7.48754E-001
  1.60000E-001	  7.42940E-001
  1.76000E-001	  7.36656E-001
  1.92000E-001	  7.31023E-001
  2.08000E-001	  7.26117E-001
  2.24000E-001	  7.19949E-001
  2.40000E-001	  7.14345E-001
  2.56000E-001	  7.08437E-001
  2.88000E-001	  6.98090E-001
  3.20000E-001	  6.87035E-001
  3.52000E-001	  6.76896E-001
  3.84000E-001	  6.66721E-001
  4.16000E-001	  6.56710E-001
  4.48000E-001	  6.46842E-001
  4.80000E-001	  6.37675E-001
  5.12000E-001	  6.28403E-001
  5.76000E-001	  6.10305E-001
  6.40000E-001	  5.93526E-001
  7.04000E-001	  5.77192E-001
  7.68000E-001	  5.61957E-001
  8.32000E-001	  5.46851E-001
  8.96000E-001	  5.32659E-001
  9.60000E-001	  5.18975E-001
  1.02400E+000	  5.05301E-001
  1.15200E+000	  4.81405E-001
  1.28000E+000	  4.59536E-001
  1.40800E+000	  4.38654E-001
  1.53600E+000	  4.19656E-001
  1.66400E+000	  4.02369E-001
  1.79200E+000	  3.86353E-001
  1.92000E+000	  3.71296E-001
  2.01600E+000	  3.61559E-001
  2.27200E+000	  3.37960E-001
  2.52800E+000	  3.17172E-001
  2.78400E+000	  2.99312E-001
  3.04000E+000	  2.82381E-001
  3.29600E+000	  2.67764E-001
  3.55200E+000	  2.55009E-001
  3.80800E+000	  2.42972E-001
  4.06400E+000	  2.32230E-001
  4.57600E+000	  2.14238E-001
  5.08800E+000	  1.99930E-001
  5.60000E+000	  1.87242E-001
  6.11200E+000	  1.77207E-001
  6.62400E+000	  1.68595E-001
  7.13600E+000	  1.59543E-001
  7.64800E+000	  1.51327E-001
  8.16000E+000	  1.45723E-001
  9.18400E+000	  1.36038E-001
  1.02080E+001	  1.25902E-001
  1.12320E+001	  1.13819E-001
  1.22560E+001	  1.02928E-001
  1.32800E+001	  9.20308E-002
  1.43040E+001	  8.60212E-002
  1.53280E+001	  8.09933E-002
  1.63520E+001	  7.19737E-002
  1.84000E+001	  5.51986E-002
  2.04480E+001	  4.28468E-002
  2.24960E+001	  2.94924E-002
  2.45440E+001	  1.80503E-002
  2.65920E+001	  1.30915E-002
  2.86400E+001	  6.35942E-003
  3.06880E+001	 -5.47119E-004
  3.27360E+001	 -6.46211E-004
  3.68320E+001	 -3.85993E-003
  4.09280E+001	 -2.47951E-003
  4.50240E+001	  1.43831E-003
  4.91200E+001	  4.33275E-003
  5.32160E+001	  7.45079E-003
  5.73120E+001	  8.86942E-003
  6.14080E+001	  1.32303E-002
  6.55040E+001	  8.34636E-003
  7.36960E+001	  4.78188E-004
  8.18880E+001	  1.47421E-004
  9.00800E+001	  3.25397E-004
  9.82720E+001	  8.09890E-003
  1.06464E+002	  1.12771E-002
  1.14656E+002	  1.31834E-002
  1.22848E+002	  1.75475E-002
  1.31040E+002	  1.48558E-002
  1.47424E+002	  1.13120E-002
  1.63808E+002	  4.96973E-003
  1.80192E+002	  6.24000E-003
  1.96576E+002	  3.84381E-003
  2.12960E+002	 -7.91864E-003
  2.29344E+002	 -5.51937E-003
  2.45728E+002	  5.36267E-003
  2.62112E+002	  1.73772E-004
  2.94880E+002	  2.47831E-003
  3.27648E+002	  6.84252E-003
  3.60416E+002	  1.90004E-002
  3.93184E+002	  7.40931E-003
  4.25952E+002	  4.23365E-003
  4.58720E+002	 -5.50582E-003
  4.91488E+002	 -6.05517E-003
  5.24256E+002	 -2.12219E-003
  5.89792E+002	  3.02783E-003
  6.55328E+002	  9.34958E-004
  7.20864E+002	  8.21856E-004
  7.86400E+002	  8.71920E-003
  8.51936E+002	 -5.17231E-004
  9.17472E+002	 -2.61949E-003
  9.83008E+002	  6.40784E-003
  1.04854E+003	 -2.98167E-003
  1.17962E+003	 -3.99660E-003
  1.31069E+003	 -1.65411E-003
  1.44176E+003	 -1.48966E-004
  1.57283E+003	 -3.87706E-003
  1.70390E+003	 -4.87790E-003
  1.83498E+003	 -1.19892E-002
  1.96605E+003	  1.01436E-004
  2.09712E+003	  2.40747E-003
  2.35926E+003	  2.21570E-003
  2.62141E+003	 -3.95634E-003
  2.88355E+003	 -2.54803E-003
  3.14570E+003	 -6.17161E-003
  3.40784E+003	 -4.49686E-003
  3.66998E+003	  5.24372E-004
  3.93213E+003	  5.41584E-003
  4.19427E+003	  6.12765E-003
  4.71856E+003	  5.07564E-003
  5.24285E+003	  2.66619E-003
  5.76714E+003	 -2.63574E-003
  6.29142E+003	 -5.30393E-004
  6.81571E+003	 -6.84533E-003
  7.34000E+003	 -1.43158E-003
  7.86429E+003	 -2.63935E-003

"Count Rate"
       0.07813	     150.19211
       0.15625	     248.55276
       0.23438	     201.94672
       0.31250	     381.72388
       0.39063	     353.17621
       0.46875	     400.39700
       0.54688	     510.54047
       0.62500	     209.23412
       0.70313	     172.86116
       0.78125	     265.53534
       0.85938	     219.90266
       0.93750	     249.64139
       1.01563	     161.80840
       1.09375	     143.75000
       1.17188	     385.16904
       1.25000	     413.35809
       1.32813	     220.01793
       1.40625	     202.25409
       1.48438	     400.94772
       1.56250	     175.99898
       1.64063	     172.41290
       1.71875	     309.73361
       1.79688	     274.52612
       1.87500	     254.76434
       1.95313	     236.53944
       2.03125	     153.77817
       2.10938	     270.69672
       2.18750	     275.42264
       2.26563	     228.44518
       2.34375	     186.71875
       2.42188	     239.86935
       2.50000	     396.42673
       2.57813	     187.29507
       2.65625	     240.66342
       2.73438	     215.54816
       2.81250	     282.38986
       2.89063	     187.41034
       2.96875	     218.77560
       3.04688	     236.09119
       3.12500	     136.46260
       3.20313	     208.64497
       3.28125	     204.59784
       3.35938	     224.50050
       3.43750	     423.36066
       3.51563	     182.68442
       3.59375	     148.46310
       3.67188	     226.05020
       3.75000	     235.95030
       3.82813	     159.41342
       3.90625	     170.87602
       3.98438	     191.29099
       4.06250	     229.61066
       4.14063	     231.44211
       4.21875	     272.34888
       4.29688	     333.68338
       4.37500	     243.64754
       4.45313	     208.03021
       4.53125	     244.65932
       4.60938	     226.33195
       4.68750	     364.02408
       4.76563	     248.87294
       4.84375	     190.13832
       4.92188	     293.89087
       5.00000	     146.19620
       5.07813	     233.59375
       5.15625	     294.10861
       5.23438	     265.29199
       5.31250	     324.73105
       5.39063	     273.70645
       5.46875	     375.67877
       5.54688	     263.70389
       5.62500	     222.68185
       5.70313	     338.30685
       5.78125	     339.76691
       5.85938	     351.58810
       5.93750	     172.48975
       6.01563	     241.66238
       6.09375	     254.39293
       6.17188	     299.52612
       6.25000	     231.51895
       6.32813	     170.00511
       6.40625	     250.87090
       6.48438	     323.09171
       6.56250	     362.03891
       6.64063	     312.28226
       6.71875	     249.05225
       6.79688	     292.64856
       6.87500	     231.30122
       6.95313	     383.05582
       7.03125	     252.20287
       7.10938	     199.01382
       7.18750	     240.43288
       7.26563	     188.05070
       7.34375	     332.45389
       7.42188	     275.48666
       7.50000	     227.29251
       7.57813	     198.69365
       7.65625	     179.11116
       7.73438	     125.90932
       7.81250	     325.96054
       7.89063	     191.93135
       7.96875	     280.04611
       8.04688	     201.08862
       8.12500	     185.02817
       8.20313	     362.80737
       8.28125	     273.00204
       8.35938	     175.79405
       8.43750	     244.90266
       8.51563	     189.71567
       8.59375	     245.21004
       8.67188	     258.27356
       8.75000	     107.55635
       8.82813	     246.42673
       8.90625	     182.51793
       8.98438	     485.06659
       9.06250	     194.35194
       9.14063	     191.79047
       9.21875	     134.36218
       9.29688	     233.73462
       9.37500	     188.65266
       9.45313	     354.50818
       9.53125	     239.15215
       9.60938	     255.86577
       9.68750	     264.52356
       9.76563	     158.17110
       9.84375	     145.70952
       9.92188	     334.45184
      10.00000	     169.12141
      10.07813	     176.30635
      10.15625	     193.49385
      10.23438	     391.70081
      10.31250	     336.94928
      10.39063	     250.56352
      10.46875	     362.67929
      10.54688	     190.13832
      10.62500	     367.17468
      10.70313	     411.55225
      10.78125	     278.39395
      10.85938	     308.90112
      10.93750	     314.24179
      11.01563	     357.81250
      11.09375	     303.50922
      11.17188	     162.42316
      11.25000	     225.44826
      11.32813	     216.25255
      11.40625	     280.34067
      11.48438	     205.27663
      11.56250	     241.27817
      11.64063	     199.34682
      11.71875	     186.50102
      11.79688	     212.82018
      11.87500	     220.81198
      11.95313	     182.37704
      12.03125	     267.59732
      12.10938	     167.82787
      12.18750	     177.33093
      12.26563	     211.68033
      12.34375	     231.05788
      12.42188	     171.32428
      12.50000	     210.54047
      12.57813	     183.10707
      12.65625	     209.79764
      12.73438	     247.19518
      12.81250	     304.46976
      12.89063	     482.96619
      12.96875	     208.56813
      13.04688	     309.32376
      13.12500	     219.53125
      13.20313	     189.36987
      13.28125	     247.06711
      13.35938	     278.72693
      13.43750	     194.74896
      13.51563	     219.01895
      13.59375	     149.19313
      13.67188	     250.84528
      13.75000	     147.42572
      13.82813	     238.53738
      13.90625	     168.42981
      13.98438	     202.24129
      14.06250	     168.13524
      14.14063	     271.47797
      14.21875	     171.00409
      14.29688	     333.46567
      14.37500	     270.32529
      14.45313	     222.54097
      14.53125	     314.80533
      14.60938	     157.15932
      14.68750	     171.60603
      14.76563	     225.92212
      14.84375	     166.23975
      14.92188	     290.47131
      15.00000	     355.72488
      15.07813	     220.58145
      15.15625	     296.14496
      15.23438	     205.75050
      15.31250	     261.94928
      15.39063	     266.26535
      15.46875	     198.73207
      15.54688	     204.30327
      15.62500	     177.40778
      15.70313	     182.49231
      15.78125	     259.84888
      15.85938	     191.44467
      15.93750	     294.88986
      16.01563	     256.87756
      16.09375	     185.60451
      16.17188	     169.87704
      16.25000	     183.00461
      16.32813	     210.57889
      16.40625	     209.09323
      16.48438	     224.64139
      16.56250	     272.34888
      16.64063	     138.70389
      16.71875	     219.50563
      16.79688	     218.05840
      16.87500	     278.95746
      16.95313	     230.55840
      17.03125	     225.20491
      17.10938	     254.49538
      17.18750	     159.52869
      17.26563	     281.27560
      17.34375	     295.45337
      17.42188	     372.66904
      17.50000	     240.39445
      17.57813	     299.30838
      17.65625	     208.33760
      17.73438	     244.53125
      17.81250	     267.07224
      17.89063	     218.92929
      17.96875	     491.75204
      18.04688	     419.21106
      18.12500	     236.65471
      18.20313	     217.90471
      18.28125	     418.86526
      18.35938	     392.85349
      18.43750	     172.31044
      18.51563	     235.22028
      18.59375	     210.16905
      18.67188	     177.16444
      18.75000	     168.40419
      18.82813	     269.88986
      18.90625	     164.43391
      18.98438	     212.41034
      19.06250	     323.45029
      19.14063	     322.96362
      19.21875	     210.57889
      19.29688	     193.77560
      19.37500	     222.16957
      19.45313	     287.19263
      19.53125	     253.88063
      19.60938	     215.90675
      19.68750	     227.81761
      19.76563	     217.30276
      19.84375	     128.38115
      19.92188	     261.56506

Monitor Diode	 230683.27

"Cumulant 1.Order"
FluctuationFreq. [1/ms]	 1.1031E-001
DiffCoefficient [µm²/s]	 1.6746E-001
Hydrodyn. Radius [nm]	 1.2511E+003

"Cumulant 2.Order"
FluctuationFreq. [1/ms]	 1.9042E-001
DiffCoefficient [µm²/s]	 2.8908E-001
Hydrodyn. Radius [nm]	 7.2474E+002
Expansion Parameter µ2	 1.8002E-002

"Cumulant 3.Order"
FluctuationFreq. [1/ms]	 2.4176E-001
DiffCoefficient [µm²/s]	 3.6701E-001
Hydrodyn. Radius [nm]	 5.7086E+002
Expansion Parameter µ2	 4.9458E-002
Expansion Parameter µ3	 5.7023E-003

"StandardDeviation"
  1.25000E-004	  1.96830E-002
  2.50000E-004	  1.96837E-002
  3.75000E-004	  1.96843E-002
  5.00000E-004	  1.96848E-002
  6.25000E-004	  1.96854E-002
  7.50000E-004	  1.96860E-002
  8.75000E-004	  1.96867E-002
  1.00000E-003	  1.96873E-002
  1.12500E-003	  1.96848E-002
  1.25000E-003	  1.96849E-002
  1.37500E-003	  1.96851E-002
  1.50000E-003	  1.96825E-002
  1.62500E-003	  1.96813E-002
  1.75000E-003	  1.96815E-002
  1.87500E-003	  1.96818E-002
  2.00000E-003	  1.95293E-002
  2.25000E-003	  1.95295E-002
  2.50000E-003	  1.95296E-002
  2.75000E-003	  1.95296E-002
  3.00000E-003	  1.95297E-002
  3.25000E-003	  1.95296E-002
  3.50000E-003	  1.95295E-002
  3.75000E-003	  1.95297E-002
  4.00000E-003	  1.94534E-002
  4.50000E-003	  1.94530E-002
  5.00000E-003	  1.94529E-002
  5.50000E-003	  1.94529E-002
  6.00000E-003	  1.94530E-002
  6.50000E-003	  1.94530E-002
  7.00000E-003	  1.94531E-002
  7.50000E-003	  1.94529E-002
  8.00000E-003	  1.94143E-002
  9.00000E-003	  1.94133E-002
  1.00000E-002	  1.94134E-002
  1.10000E-002	  1.94135E-002
  1.20000E-002	  1.94135E-002
  1.30000E-002	  1.94137E-002
  1.40000E-002	  1.94136E-002
  1.50000E-002	  1.94137E-002
  1.60000E-002	  1.93941E-002
  1.80000E-002	  1.93920E-002
  2.00000E-002	  1.93922E-002
  2.20000E-002	  1.93922E-002
  2.40000E-002	  1.93922E-002
  2.60000E-002	  1.93923E-002
  2.80000E-002	  1.93922E-002
  3.00000E-002	  1.93925E-002
  3.20000E-002	  1.93816E-002
  3.60000E-002	  1.93781E-002
  4.00000E-002	  1.93784E-002
  4.40000E-002	  1.93784E-002
  4.80000E-002	  1.93780E-002
  5.20000E-002	  1.93788E-002
  5.60000E-002	  1.93785E-002
  6.00000E-002	  1.93784E-002
  6.40000E-002	  1.93720E-002
  7.20000E-002	  1.93646E-002
  8.00000E-002	  1.93655E-002
  8.80000E-002	  1.93661E-002
  9.60000E-002	  1.93671E-002
  1.04000E-001	  1.93672E-002
  1.12000E-001	  1.93684E-002
  1.20000E-001	  1.93687E-002
  1.28000E-001	  1.93628E-002
  1.44000E-001	  1.93507E-002
  1.60000E-001	  1.93525E-002
  1.76000E-001	  1.93550E-002
  1.92000E-001	  1.93566E-002
  2.08000E-001	  1.93581E-002
  2.24000E-001	  1.93610E-002
  2.40000E-001	  1.93630E-002
  2.56000E-001	  1.93607E-002
  2.88000E-001	  1.93444E-002
  3.20000E-001	  1.93511E-002
  3.52000E-001	  1.93572E-002
  3.84000E-001	  1.93628E-002
  4.16000E-001	  1.93694E-002
  4.48000E-001	  1.93750E-002
  4.80000E-001	  1.93796E-002
  5.12000E-001	  1.93695E-002
  5.76000E-001	  1.93458E-002
  6.40000E-001	  1.93542E-002
  7.04000E-001	  1.93621E-002
  7.68000E-001	  1.93704E-002
  8.32000E-001	  1.93756E-002
  8.96000E-001	  1.93785E-002
  9.60000E-001	  1.93807E-002
  1.02400E+000	  1.94105E-002
  1.15200E+000	  1.93451E-002
  1.28000E+000	  1.93399E-002
  1.40800E+000	  1.93298E-002
  1.53600E+000	  1.93092E-002
  1.66400E+000	  1.92913E-002
  1.79200E+000	  1.92622E-002
  1.92000E+000	  1.92206E-002
  2.01600E+000	  1.91325E-002
  2.27200E+000	  1.90125E-002
  2.52800E+000	  1.89284E-002
  2.78400E+000	  1.88406E-002
  3.04000E+000	  1.87411E-002
  3.29600E+000	  1.86379E-002
  3.55200E+000	  1.85288E-002
  3.80800E+000	  1.84276E-002
  4.06400E+000	  1.82783E-002
  4.57600E+000	  1.79840E-002
  5.08800E+000	  1.77489E-002
  5.60000E+000	  1.75012E-002
  6.11200E+000	  1.72523E-002
  6.62400E+000	  1.70004E-002
  7.13600E+000	  1.67405E-002
  7.64800E+000	  1.64910E-002
  8.16000E+000	  1.62778E-002
  9.18400E+000	  1.57813E-002
  1.02080E+001	  1.53029E-002
  1.12320E+001	  1.47967E-002
  1.22560E+001	  1.43091E-002
  1.32800E+001	  1.38406E-002
  1.43040E+001	  1.34229E-002
  1.53280E+001	  1.00390E-002
  1.63520E+001	  9.70513E-003
  1.84000E+001	  9.70513E-003
  2.04480E+001	  9.70513E-003
  2.24960E+001	  9.70513E-003
  2.45440E+001	  9.70513E-003
  2.65920E+001	  9.70513E-003
  2.86400E+001	  9.70513E-003
  3.06880E+001	  9.70513E-003
  3.27360E+001	  9.13890E-003
  3.68320E+001	  9.13890E-003
  4.09280E+001	  9.13890E-003
  4.50240E+001	  9.13890E-003
  4.91200E+001	  9.13890E-003
  5.32160E+001	  9.13890E-003
  5.73120E+001	  9.13890E-003
  6.14080E+001	  9.13890E-003
  6.55040E+001	  9.08516E-003
  7.36960E+001	  9.08516E-003
  8.18880E+001	  9.08516E-003
  9.00800E+001	  9.08516E-003
  9.82720E+001	  9.08516E-003
  1.06464E+002	  9.08516E-003
  1.14656E+002	  9.08516E-003
  1.22848E+002	  9.08516E-003
  1.31040E+002	  8.43479E-003
  1.47424E+002	  8.43479E-003
  1.63808E+002	  8.43479E-003
  1.80192E+002	  8.43479E-003
  1.96576E+002	  8.43479E-003
  2.12960E+002	  8.43479E-003
  2.29344E+002	  8.43479E-003
  2.45728E+002	  8.43479E-003
  2.62112E+002	  7.21894E-003
  2.94880E+002	  7.21894E-003
  3.27648E+002	  7.21894E-003
  3.60416E+002	  7.21894E-003
  3.93184E+002	  7.21894E-003
  4.25952E+002	  7.21894E-003
  4.58720E+002	  7.21894E-003
  4.91488E+002	  7.21894E-003
