ALV-6000/E-WIN Data
Date :	"11/13/2025"
Time :	"10:24:22 AM"
Samplename : 	"NaCl - 465nm"
SampMemo(0) : 	""
SampMemo(1) : 	""
SampMemo(2) : 	""
SampMemo(3) : 	""
SampMemo(4) : 	""
SampMemo(5) : 	""
SampMemo(6) : 	""
SampMemo(7) : 	""
SampMemo(8) : 	""
SampMemo(9) : 	""
Temperature [K] :	     291.88262
Viscosity [cp]  :	       1.03350
Refractive Index:	       1.33200
Wavelength [nm] :	     632.80000
Angle [°]       :	      44.99900
Duration [s]    :	        20
Runs            :	         1
Mode            :	"SINGLE AUTO CH0 "
MeanCR0 [kHz]   :	     183.99539
MeanCR1 [kHz]   :	       0.00000

"Correlation"
  1.25000E-004	  7.02272E-001
  2.50000E-004	  8.94005E-001
  3.75000E-004	  8.95844E-001
  5.00000E-004	  8.99272E-001
  6.25000E-004	  8.91194E-001
  7.50000E-004	  8.87031E-001
  8.75000E-004	  8.83663E-001
  1.00000E-003	  8.97635E-001
  1.12500E-003	  8.83022E-001
  1.25000E-003	  8.93863E-001
  1.37500E-003	  8.92819E-001
  1.50000E-003	  8.95785E-001
  1.62500E-003	  8.89439E-001
  1.75000E-003	  8.87826E-001
  1.87500E-003	  8.88585E-001
  2.00000E-003	  8.88460E-001
  2.25000E-003	  8.91787E-001
  2.50000E-003	  8.92470E-001
  2.75000E-003	  8.86913E-001
  3.00000E-003	  8.87737E-001
  3.25000E-003	  8.89160E-001
  3.50000E-003	  8.89000E-001
  3.75000E-003	  8.88875E-001
  4.00000E-003	  8.89782E-001
  4.50000E-003	  8.88418E-001
  5.00000E-003	  8.88054E-001
  5.50000E-003	  8.92978E-001
  6.00000E-003	  8.90725E-001
  6.50000E-003	  8.89290E-001
  7.00000E-003	  8.88614E-001
  7.50000E-003	  8.88376E-001
  8.00000E-003	  8.88418E-001
  9.00000E-003	  8.87179E-001
  1.00000E-002	  8.87720E-001
  1.10000E-002	  8.89645E-001
  1.20000E-002	  8.88450E-001
  1.30000E-002	  8.89249E-001
  1.40000E-002	  8.88475E-001
  1.50000E-002	  8.88526E-001
  1.60000E-002	  8.88187E-001
  1.80000E-002	  8.88938E-001
  2.00000E-002	  8.88144E-001
  2.20000E-002	  8.85842E-001
  2.40000E-002	  8.87691E-001
  2.60000E-002	  8.86682E-001
  2.80000E-002	  8.86189E-001
  3.00000E-002	  8.88437E-001
  3.20000E-002	  8.86089E-001
  3.60000E-002	  8.85420E-001
  4.00000E-002	  8.85152E-001
  4.40000E-002	  8.84896E-001
  4.80000E-002	  8.83201E-001
  5.20000E-002	  8.84256E-001
  5.60000E-002	  8.82563E-001
  6.00000E-002	  8.83589E-001
  6.40000E-002	  8.81909E-001
  7.20000E-002	  8.81475E-001
  8.00000E-002	  8.80208E-001
  8.80000E-002	  8.79084E-001
  9.60000E-002	  8.78373E-001
  1.04000E-001	  8.77931E-001
  1.12000E-001	  8.76160E-001
  1.20000E-001	  8.74732E-001
  1.28000E-001	  8.74120E-001
  1.44000E-001	  8.72238E-001
  1.60000E-001	  8.70044E-001
  1.76000E-001	  8.67869E-001
  1.92000E-001	  8.66340E-001
  2.08000E-001	  8.64069E-001
  2.24000E-001	  8.61351E-001
  2.40000E-001	  8.59613E-001
  2.56000E-001	  8.57577E-001
  2.88000E-001	  8.53733E-001
  3.20000E-001	  8.50135E-001
  3.52000E-001	  8.46453E-001
  3.84000E-001	  8.42217E-001
  4.16000E-001	  8.38439E-001
  4.48000E-001	  8.34650E-001
  4.80000E-001	  8.30539E-001
  5.12000E-001	  8.26691E-001
  5.76000E-001	  8.18819E-001
  6.40000E-001	  8.11495E-001
  7.04000E-001	  8.04329E-001
  7.68000E-001	  7.96697E-001
  8.32000E-001	  7.89128E-001
  8.96000E-001	  7.81999E-001
  9.60000E-001	  7.75518E-001
  1.02400E+000	  7.68201E-001
  1.15200E+000	  7.53785E-001
  1.28000E+000	  7.39870E-001
  1.40800E+000	  7.25474E-001
  1.53600E+000	  7.12040E-001
  1.66400E+000	  6.98565E-001
  1.79200E+000	  6.85205E-001
  1.92000E+000	  6.72083E-001
  2.01600E+000	  6.62069E-001
  2.27200E+000	  6.36595E-001
  2.52800E+000	  6.12214E-001
  2.78400E+000	  5.88711E-001
  3.04000E+000	  5.65915E-001
  3.29600E+000	  5.44058E-001
  3.55200E+000	  5.22693E-001
  3.80800E+000	  5.02483E-001
  4.06400E+000	  4.82825E-001
  4.57600E+000	  4.45390E-001
  5.08800E+000	  4.10845E-001
  5.60000E+000	  3.77847E-001
  6.11200E+000	  3.47377E-001
  6.62400E+000	  3.18502E-001
  7.13600E+000	  2.92064E-001
  7.64800E+000	  2.67849E-001
  8.16000E+000	  2.46883E-001
  9.18400E+000	  2.08899E-001
  1.02080E+001	  1.77286E-001
  1.12320E+001	  1.49231E-001
  1.22560E+001	  1.25375E-001
  1.32800E+001	  1.04790E-001
  1.43040E+001	  8.83355E-002
  1.53280E+001	  7.53409E-002
  1.63520E+001	  6.48132E-002
  1.84000E+001	  4.87641E-002
  2.04480E+001	  3.61337E-002
  2.24960E+001	  2.78303E-002
  2.45440E+001	  2.17013E-002
  2.65920E+001	  2.07061E-002
  2.86400E+001	  1.75873E-002
  3.06880E+001	  1.09706E-002
  3.27360E+001	  6.56032E-003
  3.68320E+001	  5.52580E-003
  4.09280E+001	  9.34583E-003
  4.50240E+001	  9.75003E-003
  4.91200E+001	  9.73031E-003
  5.32160E+001	  7.10656E-003
  5.73120E+001	  9.27723E-004
  6.14080E+001	  1.32238E-003
  6.55040E+001	 -2.13643E-003
  7.36960E+001	 -2.87590E-003
  8.18880E+001	  3.64846E-003
  9.00800E+001	  6.23511E-003
  9.82720E+001	  1.83444E-002
  1.06464E+002	  1.55572E-002
  1.14656E+002	 -1.77241E-002
  1.22848E+002	 -2.88852E-002
  1.31040E+002	 -1.04693E-002
  1.47424E+002	  1.17209E-002
  1.63808E+002	  1.71015E-002
  1.80192E+002	 -2.41215E-003
  1.96576E+002	  3.72204E-003
  2.12960E+002	  3.03650E-002
  2.29344E+002	  1.48505E-002
  2.45728E+002	  6.72158E-003
  2.62112E+002	  2.07947E-002
  2.94880E+002	  1.54851E-002
  3.27648E+002	  1.87596E-002
  3.60416E+002	  3.46993E-003
  3.93184E+002	 -1.20657E-002
  4.25952E+002	 -4.25406E-003
  4.58720E+002	 -9.02034E-003
  4.91488E+002	 -9.34411E-003
  5.24256E+002	  5.83640E-003
  5.89792E+002	  5.27710E-003
  6.55328E+002	 -1.89635E-002
  7.20864E+002	 -8.25338E-003
  7.86400E+002	  4.79831E-003
  8.51936E+002	 -1.05089E-002
  9.17472E+002	  9.04508E-003
  9.83008E+002	  7.06286E-003
  1.04854E+003	 -1.58504E-002
  1.17962E+003	 -9.62416E-003
  1.31069E+003	 -2.17200E-003
  1.44176E+003	  2.02295E-003
  1.57283E+003	 -7.22328E-003
  1.70390E+003	  1.84123E-003
  1.83498E+003	 -1.01049E-002
  1.96605E+003	 -3.48881E-005
  2.09712E+003	 -3.51347E-003
  2.35926E+003	  8.96676E-003
  2.62141E+003	  7.66799E-003
  2.88355E+003	  8.16050E-004
  3.14570E+003	 -9.12821E-003
  3.40784E+003	 -4.22870E-003
  3.66998E+003	 -4.89918E-003
  3.93213E+003	 -4.85978E-004
  4.19427E+003	  2.63815E-003
  4.71856E+003	 -6.59784E-003
  5.24285E+003	  7.91201E-003
  5.76714E+003	  8.50405E-003
  6.29142E+003	 -1.49177E-002
  6.81571E+003	 -5.68340E-003
  7.34000E+003	 -5.11253E-003
  7.86429E+003	  8.36689E-003

"Count Rate"
       0.07813	     228.70132
       0.15625	     188.71669
       0.23438	     146.31148
       0.31250	     235.30994
       0.39063	     194.37756
       0.46875	     380.32785
       0.54688	     290.49692
       0.62500	     114.48514
       0.70313	     145.60707
       0.78125	     132.17213
       0.85938	      99.61578
       0.93750	     137.17981
       1.01563	     145.32530
       1.09375	     174.52612
       1.17188	     194.46721
       1.25000	     167.31557
       1.32813	     173.39908
       1.40625	     280.48154
       1.48438	     222.91238
       1.56250	     132.79968
       1.64063	     240.94518
       1.71875	     265.98361
       1.79688	     106.81352
       1.87500	     100.53791
       1.95313	     128.09938
       2.03125	     232.83810
       2.10938	     175.48668
       2.18750	     145.59425
       2.26563	     201.71619
       2.34375	      92.00819
       2.42188	     218.22488
       2.50000	     134.83606
       2.57813	     178.99590
       2.65625	     296.09375
       2.73438	     165.20235
       2.81250	     160.48924
       2.89063	     226.21669
       2.96875	     195.64549
       3.04688	     165.42007
       3.12500	     140.99641
       3.20313	     302.40778
       3.28125	      92.22592
       3.35938	     271.43954
       3.43750	     396.78534
       3.51563	     182.65881
       3.59375	     184.33658
       3.67188	     193.26332
       3.75000	     284.81046
       3.82813	     158.45287
       3.90625	     315.24078
       3.98438	     293.05838
       4.06250	     154.41853
       4.14063	     158.36322
       4.21875	     130.13576
       4.29688	     281.59579
       4.37500	     143.03278
       4.45313	     203.75255
       4.53125	      97.55379
       4.60938	     154.53381
       4.68750	     207.38985
       4.76563	     138.31967
       4.84375	     113.94723
       4.92188	     160.06659
       5.00000	     103.75256
       5.07813	     129.72592
       5.15625	     221.84938
       5.23438	     169.86424
       5.31250	     143.83965
       5.39063	      97.32326
       5.46875	     141.30379
       5.54688	     143.71158
       5.62500	      90.71465
       5.70313	     144.30072
       5.78125	     111.44979
       5.85938	     169.55685
       5.93750	     146.22182
       6.01563	     281.78790
       6.09375	     135.38678
       6.17188	     199.62859
       6.25000	     226.61372
       6.32813	     129.12398
       6.40625	     180.54559
       6.48438	     221.08093
       6.56250	     135.65573
       6.64063	     249.34682
       6.71875	     163.51178
       6.79688	     233.68340
       6.87500	     219.94109
       6.95313	     107.36423
       7.03125	     111.88525
       7.10938	     208.22234
       7.18750	     120.35092
       7.26563	     173.64241
       7.34375	     277.02356
       7.42188	     158.88832
       7.50000	     263.78073
       7.57813	     193.86526
       7.65625	     334.86166
       7.73438	     288.56302
       7.81250	     216.44467
       7.89063	     267.62296
       7.96875	     128.81659
       8.04688	     146.22182
       8.12500	      90.18954
       8.20313	     176.25511
       8.28125	     198.19415
       8.35938	     135.98872
       8.43750	     200.17929
       8.51563	     189.74129
       8.59375	     155.09734
       8.67188	     178.90625
       8.75000	     155.66086
       8.82813	     223.27100
       8.90625	     315.90674
       8.98438	     136.79559
       9.06250	     159.91290
       9.14063	     214.36987
       9.21875	     311.36014
       9.29688	     329.70029
       9.37500	     144.91547
       9.45313	     191.29099
       9.53125	     184.37500
       9.60938	     331.27560
       9.68750	     133.76024
       9.76563	     186.37294
       9.84375	     248.06609
       9.92188	     171.96465
      10.00000	     219.27510
      10.07813	     164.44672
      10.15625	     269.10861
      10.23438	     135.51485
      10.31250	     202.93288
      10.39063	     220.14600
      10.46875	     150.88370
      10.54688	     198.36066
      10.62500	     146.17059
      10.70313	     123.91137
      10.78125	     147.25922
      10.85938	     129.20082
      10.93750	     127.24129
      11.01563	     135.10501
      11.09375	     183.78586
      11.17188	     107.26178
      11.25000	     220.03073
      11.32813	     127.35655
      11.40625	     196.75974
      11.48438	     160.07941
      11.56250	     155.46875
      11.64063	     200.57632
      11.71875	     396.50357
      11.79688	     312.65369
      11.87500	     276.58810
      11.95313	     391.93134
      12.03125	     346.56763
      12.10938	      87.52561
      12.18750	     198.89856
      12.26563	     212.60245
      12.34375	      93.05840
      12.42188	     128.29149
      12.50000	     226.38319
      12.57813	     236.75717
      12.65625	     133.31198
      12.73438	     153.61168
      12.81250	     131.28842
      12.89063	     145.38934
      12.96875	     186.68033
      13.04688	     192.16188
      13.12500	      82.23617
      13.20313	     124.33401
      13.28125	     177.92007
      13.35938	     319.96671
      13.43750	     246.60603
      13.51563	     188.75511
      13.59375	     128.66290
      13.67188	     236.03995
      13.75000	     139.52356
      13.82813	      90.15112
      13.90625	     235.92468
      13.98438	     218.71158
      14.06250	     137.65369
      14.14063	     194.41599
      14.21875	     176.67776
      14.29688	     365.65060
      14.37500	     167.46925
      14.45313	     185.47643
      14.53125	     217.90471
      14.60938	     213.84477
      14.68750	     111.12961
      14.76563	     220.22284
      14.84375	     254.30327
      14.92188	     183.72182
      15.00000	      82.83811
      15.07813	     141.49590
      15.15625	     106.21158
      15.23438	     224.24435
      15.31250	     123.36065
      15.39063	     175.57632
      15.46875	     175.35860
      15.54688	     117.39242
      15.62500	     239.83093
      15.70313	     216.64958
      15.78125	     164.57478
      15.85938	      70.60707
      15.93750	     140.91957
      16.01563	     193.27612
      16.09375	     102.11321
      16.17188	     249.23155
      16.25000	     111.73155
      16.32813	      97.50256
      16.40625	     165.82991
      16.48438	     214.56198
      16.56250	     185.14343
      16.64063	     103.00973
      16.71875	     255.81454
      16.79688	     221.26024
      16.87500	     157.67162
      16.95313	     112.87141
      17.03125	     140.42007
      17.10938	     204.20082
      17.18750	     124.44928
      17.26563	     133.29918
      17.34375	     177.74077
      17.42188	     192.80225
      17.50000	     109.95133
      17.57813	     248.50153
      17.65625	     210.78380
      17.73438	      87.15420
      17.81250	     178.76537
      17.89063	     147.07991
      17.96875	     103.89344
      18.04688	     166.67520
      18.12500	     197.43852
      18.20313	     182.53073
      18.28125	     210.43800
      18.35938	     342.17468
      18.43750	     146.31148
      18.51563	     224.62859
      18.59375	     177.59990
      18.67188	     183.95235
      18.75000	     133.04303
      18.82813	     156.77510
      18.90625	     151.65215
      18.98438	     141.27817
      19.06250	     130.16136
      19.14063	     143.35297
      19.21875	     142.13626
      19.29688	     292.12344
      19.37500	      81.40369
      19.45313	     168.10962
      19.53125	     267.16187
      19.60938	     129.23924
      19.68750	     242.63576
      19.76563	     322.40009
      19.84375	     112.79456
      19.92188	     250.93494

Monitor Diode	   5067.20

"Cumulant 1.Order"
FluctuationFreq. [1/ms]	 7.7728E-002
DiffCoefficient [µm²/s]	 7.5861E-001
Hydrodyn. Radius [nm]	 2.7256E+002

"Cumulant 2.Order"
FluctuationFreq. [1/ms]	 7.2964E-002
DiffCoefficient [µm²/s]	 7.1212E-001
Hydrodyn. Radius [nm]	 2.9035E+002
Expansion Parameter µ2	-1.2315E-003

"Cumulant 3.Order"
FluctuationFreq. [1/ms]	 7.1147E-002
DiffCoefficient [µm²/s]	 6.9439E-001
Hydrodyn. Radius [nm]	 2.9777E+002
Expansion Parameter µ2	-2.4211E-003
Expansion Parameter µ3	-2.3631E-004

"StandardDeviation"
  1.25000E-004	  3.17213E-002
  2.50000E-004	  3.17220E-002
  3.75000E-004	  3.17224E-002
  5.00000E-004	  3.17230E-002
  6.25000E-004	  3.17234E-002
  7.50000E-004	  3.17238E-002
  8.75000E-004	  3.17244E-002
  1.00000E-003	  3.17249E-002
  1.12500E-003	  3.17224E-002
  1.25000E-003	  3.17236E-002
  1.37500E-003	  3.17229E-002
  1.50000E-003	  3.17229E-002
  1.62500E-003	  3.17214E-002
  1.75000E-003	  3.17209E-002
  1.87500E-003	  3.17208E-002
  2.00000E-003	  3.15450E-002
  2.25000E-003	  3.15454E-002
  2.50000E-003	  3.15454E-002
  2.75000E-003	  3.15452E-002
  3.00000E-003	  3.15452E-002
  3.25000E-003	  3.15453E-002
  3.50000E-003	  3.15452E-002
  3.75000E-003	  3.15452E-002
  4.00000E-003	  3.14569E-002
  4.50000E-003	  3.14565E-002
  5.00000E-003	  3.14566E-002
  5.50000E-003	  3.14567E-002
  6.00000E-003	  3.14566E-002
  6.50000E-003	  3.14566E-002
  7.00000E-003	  3.14566E-002
  7.50000E-003	  3.14566E-002
  8.00000E-003	  3.14122E-002
  9.00000E-003	  3.14114E-002
  1.00000E-002	  3.14114E-002
  1.10000E-002	  3.14113E-002
  1.20000E-002	  3.14114E-002
  1.30000E-002	  3.14114E-002
  1.40000E-002	  3.14115E-002
  1.50000E-002	  3.14115E-002
  1.60000E-002	  3.13889E-002
  1.80000E-002	  3.13872E-002
  2.00000E-002	  3.13873E-002
  2.20000E-002	  3.13875E-002
  2.40000E-002	  3.13873E-002
  2.60000E-002	  3.13875E-002
  2.80000E-002	  3.13875E-002
  3.00000E-002	  3.13873E-002
  3.20000E-002	  3.13755E-002
  3.60000E-002	  3.13725E-002
  4.00000E-002	  3.13724E-002
  4.40000E-002	  3.13724E-002
  4.80000E-002	  3.13726E-002
  5.20000E-002	  3.13724E-002
  5.60000E-002	  3.13725E-002
  6.00000E-002	  3.13722E-002
  6.40000E-002	  3.13642E-002
  7.20000E-002	  3.13573E-002
  8.00000E-002	  3.13574E-002
  8.80000E-002	  3.13573E-002
  9.60000E-002	  3.13572E-002
  1.04000E-001	  3.13566E-002
  1.12000E-001	  3.13567E-002
  1.20000E-001	  3.13564E-002
  1.28000E-001	  3.13481E-002
  1.44000E-001	  3.13346E-002
  1.60000E-001	  3.13339E-002
  1.76000E-001	  3.13331E-002
  1.92000E-001	  3.13311E-002
  2.08000E-001	  3.13301E-002
  2.24000E-001	  3.13291E-002
  2.40000E-001	  3.13273E-002
  2.56000E-001	  3.13181E-002
  2.88000E-001	  3.12908E-002
  3.20000E-001	  3.12874E-002
  3.52000E-001	  3.12839E-002
  3.84000E-001	  3.12791E-002
  4.16000E-001	  3.12749E-002
  4.48000E-001	  3.12695E-002
  4.80000E-001	  3.12639E-002
  5.12000E-001	  3.12386E-002
  5.76000E-001	  3.11873E-002
  6.40000E-001	  3.11755E-002
  7.04000E-001	  3.11620E-002
  7.68000E-001	  3.11463E-002
  8.32000E-001	  3.11322E-002
  8.96000E-001	  3.11146E-002
  9.60000E-001	  3.10941E-002
  1.02400E+000	  3.11009E-002
  1.15200E+000	  3.09717E-002
  1.28000E+000	  3.09236E-002
  1.40800E+000	  3.08744E-002
  1.53600E+000	  3.08171E-002
  1.66400E+000	  3.07638E-002
  1.79200E+000	  3.07010E-002
  1.92000E+000	  3.06145E-002
  2.01600E+000	  3.04005E-002
  2.27200E+000	  3.01709E-002
  2.52800E+000	  3.00173E-002
  2.78400E+000	  2.98605E-002
  3.04000E+000	  2.96863E-002
  3.29600E+000	  2.95019E-002
  3.55200E+000	  2.93086E-002
  3.80800E+000	  2.91471E-002
  4.06400E+000	  2.89299E-002
  4.57600E+000	  2.82673E-002
  5.08800E+000	  2.78446E-002
  5.60000E+000	  2.74113E-002
  6.11200E+000	  2.69700E-002
  6.62400E+000	  2.65249E-002
  7.13600E+000	  2.60734E-002
  7.64800E+000	  2.56365E-002
  8.16000E+000	  2.52280E-002
  9.18400E+000	  2.43095E-002
  1.02080E+001	  2.35480E-002
  1.12320E+001	  2.28139E-002
  1.22560E+001	  2.21317E-002
  1.32800E+001	  2.14904E-002
  1.43040E+001	  2.09045E-002
  1.53280E+001	  2.03717E-002
  1.63520E+001	  1.96428E-002
  1.84000E+001	  1.88584E-002
  2.04480E+001	  1.82848E-002
  2.24960E+001	  1.78652E-002
  2.45440E+001	  1.75044E-002
  2.65920E+001	  1.72621E-002
  2.86400E+001	  1.69654E-002
  3.06880E+001	  1.66067E-002
  3.27360E+001	  1.48107E-002
  3.68320E+001	  1.48107E-002
  4.09280E+001	  1.48107E-002
  4.50240E+001	  1.48107E-002
  4.91200E+001	  1.48107E-002
  5.32160E+001	  1.48107E-002
  5.73120E+001	  1.48107E-002
  6.14080E+001	  1.48107E-002
  6.55040E+001	  1.50401E-002
  7.36960E+001	  1.50401E-002
  8.18880E+001	  1.50401E-002
  9.00800E+001	  1.50401E-002
  9.82720E+001	  1.50401E-002
  1.06464E+002	  1.50401E-002
  1.14656E+002	  1.50401E-002
  1.22848E+002	  1.50401E-002
  1.31040E+002	  1.35803E-002
  1.47424E+002	  1.35803E-002
  1.63808E+002	  1.35803E-002
  1.80192E+002	  1.35803E-002
  1.96576E+002	  1.35803E-002
  2.12960E+002	  1.35803E-002
  2.29344E+002	  1.35803E-002
  2.45728E+002	  1.35803E-002
  2.62112E+002	  1.14685E-002
  2.94880E+002	  1.14685E-002
  3.27648E+002	  1.14685E-002
  3.60416E+002	  1.14685E-002
  3.93184E+002	  1.14685E-002
  4.25952E+002	  1.14685E-002
  4.58720E+002	  1.14685E-002
  4.91488E+002	  1.14685E-002
