ALV-6000/E-WIN Data
Date :	"11/13/2025"
Time :	"12:16:58 PM"
Samplename : 	"NaCl - 465nm"
SampMemo(0) : 	""
SampMemo(1) : 	""
SampMemo(2) : 	""
SampMemo(3) : 	""
SampMemo(4) : 	""
SampMemo(5) : 	""
SampMemo(6) : 	""
SampMemo(7) : 	""
SampMemo(8) : 	""
SampMemo(9) : 	""
Temperature [K] :	     292.15946
Viscosity [cp]  :	       1.02644
Refractive Index:	       1.33200
Wavelength [nm] :	     632.80000
Angle [°]       :	     110.99900
Duration [s]    :	        20
Runs            :	         1
Mode            :	"SINGLE AUTO CH0 "
MeanCR0 [kHz]   :	     436.74493
MeanCR1 [kHz]   :	       0.00000

"Correlation"
  1.25000E-004	  1.82199E+000
  2.50000E-004	  2.38593E+000
  3.75000E-004	  2.37898E+000
  5.00000E-004	  2.38119E+000
  6.25000E-004	  2.37250E+000
  7.50000E-004	  2.37538E+000
  8.75000E-004	  2.37468E+000
  1.00000E-003	  2.37248E+000
  1.12500E-003	  2.36720E+000
  1.25000E-003	  2.36974E+000
  1.37500E-003	  2.36749E+000
  1.50000E-003	  2.36621E+000
  1.62500E-003	  2.36765E+000
  1.75000E-003	  2.37069E+000
  1.87500E-003	  2.36759E+000
  2.00000E-003	  2.36991E+000
  2.25000E-003	  2.36500E+000
  2.50000E-003	  2.36451E+000
  2.75000E-003	  2.36584E+000
  3.00000E-003	  2.36535E+000
  3.25000E-003	  2.36571E+000
  3.50000E-003	  2.36509E+000
  3.75000E-003	  2.36435E+000
  4.00000E-003	  2.36275E+000
  4.50000E-003	  2.36165E+000
  5.00000E-003	  2.35977E+000
  5.50000E-003	  2.35956E+000
  6.00000E-003	  2.35846E+000
  6.50000E-003	  2.35562E+000
  7.00000E-003	  2.35954E+000
  7.50000E-003	  2.35884E+000
  8.00000E-003	  2.35532E+000
  9.00000E-003	  2.35396E+000
  1.00000E-002	  2.35268E+000
  1.10000E-002	  2.35101E+000
  1.20000E-002	  2.34857E+000
  1.30000E-002	  2.34569E+000
  1.40000E-002	  2.34446E+000
  1.50000E-002	  2.34252E+000
  1.60000E-002	  2.34126E+000
  1.80000E-002	  2.33891E+000
  2.00000E-002	  2.33492E+000
  2.20000E-002	  2.33144E+000
  2.40000E-002	  2.32836E+000
  2.60000E-002	  2.32431E+000
  2.80000E-002	  2.32055E+000
  3.00000E-002	  2.31891E+000
  3.20000E-002	  2.31451E+000
  3.60000E-002	  2.30724E+000
  4.00000E-002	  2.29976E+000
  4.40000E-002	  2.29325E+000
  4.80000E-002	  2.28702E+000
  5.20000E-002	  2.28004E+000
  5.60000E-002	  2.27374E+000
  6.00000E-002	  2.26669E+000
  6.40000E-002	  2.25953E+000
  7.20000E-002	  2.24666E+000
  8.00000E-002	  2.23282E+000
  8.80000E-002	  2.22027E+000
  9.60000E-002	  2.20616E+000
  1.04000E-001	  2.19357E+000
  1.12000E-001	  2.18013E+000
  1.20000E-001	  2.16768E+000
  1.28000E-001	  2.15489E+000
  1.44000E-001	  2.12934E+000
  1.60000E-001	  2.10385E+000
  1.76000E-001	  2.07904E+000
  1.92000E-001	  2.05407E+000
  2.08000E-001	  2.02889E+000
  2.24000E-001	  2.00523E+000
  2.40000E-001	  1.98152E+000
  2.56000E-001	  1.95812E+000
  2.88000E-001	  1.91231E+000
  3.20000E-001	  1.86760E+000
  3.52000E-001	  1.82399E+000
  3.84000E-001	  1.78195E+000
  4.16000E-001	  1.74033E+000
  4.48000E-001	  1.70016E+000
  4.80000E-001	  1.66048E+000
  5.12000E-001	  1.62234E+000
  5.76000E-001	  1.54809E+000
  6.40000E-001	  1.47770E+000
  7.04000E-001	  1.41029E+000
  7.68000E-001	  1.34584E+000
  8.32000E-001	  1.28437E+000
  8.96000E-001	  1.22563E+000
  9.60000E-001	  1.16947E+000
  1.02400E+000	  1.11627E+000
  1.15200E+000	  1.01691E+000
  1.28000E+000	  9.27294E-001
  1.40800E+000	  8.46226E-001
  1.53600E+000	  7.73107E-001
  1.66400E+000	  7.06092E-001
  1.79200E+000	  6.45752E-001
  1.92000E+000	  5.92080E-001
  2.01600E+000	  5.57769E-001
  2.27200E+000	  4.69977E-001
  2.52800E+000	  3.94766E-001
  2.78400E+000	  3.31960E-001
  3.04000E+000	  2.77647E-001
  3.29600E+000	  2.32118E-001
  3.55200E+000	  1.95567E-001
  3.80800E+000	  1.65408E-001
  4.06400E+000	  1.40788E-001
  4.57600E+000	  1.00180E-001
  5.08800E+000	  6.81800E-002
  5.60000E+000	  4.19088E-002
  6.11200E+000	  2.44114E-002
  6.62400E+000	  1.47644E-002
  7.13600E+000	  8.85058E-003
  7.64800E+000	  7.03205E-003
  8.16000E+000	  5.26361E-003
  9.18400E+000	 -2.18411E-003
  1.02080E+001	  1.21178E-003
  1.12320E+001	  4.07752E-003
  1.22560E+001	  5.75027E-003
  1.32800E+001	  3.51706E-003
  1.43040E+001	 -2.77540E-003
  1.53280E+001	 -5.03374E-003
  1.63520E+001	 -8.96457E-003
  1.84000E+001	 -1.24046E-002
  2.04480E+001	 -1.64089E-002
  2.24960E+001	 -1.09592E-002
  2.45440E+001	  1.18369E-003
  2.65920E+001	  9.51941E-003
  2.86400E+001	 -3.38910E-003
  3.06880E+001	 -8.50003E-003
  3.27360E+001	 -4.06955E-003
  3.68320E+001	  7.78775E-003
  4.09280E+001	 -5.33890E-003
  4.50240E+001	  3.40052E-003
  4.91200E+001	 -7.28301E-003
  5.32160E+001	 -1.25301E-003
  5.73120E+001	  3.58214E-003
  6.14080E+001	 -6.24345E-003
  6.55040E+001	  5.54016E-003
  7.36960E+001	 -7.79707E-003
  8.18880E+001	  3.32171E-003
  9.00800E+001	 -6.46005E-003
  9.82720E+001	 -2.45869E-003
  1.06464E+002	  9.33604E-003
  1.14656E+002	  1.06297E-002
  1.22848E+002	  6.23534E-003
  1.31040E+002	  3.68945E-003
  1.47424E+002	 -3.09229E-003
  1.63808E+002	 -6.45966E-003
  1.80192E+002	 -1.45625E-004
  1.96576E+002	  1.01418E-003
  2.12960E+002	  6.68248E-003
  2.29344E+002	  3.07640E-003
  2.45728E+002	  2.97805E-003
  2.62112E+002	  2.83214E-004
  2.94880E+002	 -4.65603E-004
  3.27648E+002	  4.08569E-003
  3.60416E+002	 -5.25964E-004
  3.93184E+002	 -6.52433E-004
  4.25952E+002	  5.48606E-003
  4.58720E+002	 -7.63303E-004
  4.91488E+002	  4.19069E-004
  5.24256E+002	  3.79318E-003
  5.89792E+002	  2.66869E-003
  6.55328E+002	  4.86389E-004
  7.20864E+002	  1.26461E-004
  7.86400E+002	 -2.65173E-003
  8.51936E+002	  2.42788E-003
  9.17472E+002	 -1.63458E-003
  9.83008E+002	  3.01974E-003
  1.04854E+003	  2.01866E-004
  1.17962E+003	  2.80325E-004
  1.31069E+003	  1.72936E-003
  1.44176E+003	 -4.92196E-004
  1.57283E+003	 -1.95730E-003
  1.70390E+003	 -1.36237E-004
  1.83498E+003	 -1.51866E-003
  1.96605E+003	 -3.11377E-003
  2.09712E+003	 -4.70433E-003
  2.35926E+003	 -4.90230E-003
  2.62141E+003	 -3.66948E-003
  2.88355E+003	  2.22286E-004
  3.14570E+003	 -1.10333E-004
  3.40784E+003	 -1.11627E-003
  3.66998E+003	  1.03099E-003
  3.93213E+003	  3.64390E-003
  4.19427E+003	  3.72598E-003
  4.71856E+003	  3.36448E-003
  5.24285E+003	  6.81881E-004
  5.76714E+003	  2.03627E-004
  6.29142E+003	 -1.24192E-003
  6.81571E+003	  1.62224E-004
  7.34000E+003	 -3.03250E-003
  7.86429E+003	 -1.32941E-003

"Count Rate"
       0.07813	     520.91443
       0.15625	     452.25409
       0.23438	     339.71567
       0.31250	     346.82376
       0.39063	     483.09424
       0.46875	     421.59323
       0.54688	     372.37448
       0.62500	     398.39908
       0.70313	     442.41803
       0.78125	     436.05276
       0.85938	     294.03177
       0.93750	     353.84219
       1.01563	     442.72540
       1.09375	     525.38422
       1.17188	     418.01996
       1.25000	     445.06915
       1.32813	     398.82172
       1.40625	     451.94672
       1.48438	     483.73462
       1.56250	     402.38217
       1.64063	     389.54916
       1.71875	     373.97540
       1.79688	     406.57016
       1.87500	     494.86423
       1.95313	     467.85349
       2.03125	     392.18750
       2.10938	     354.53381
       2.18750	     391.35501
       2.26563	     543.55786
       2.34375	     397.55377
       2.42188	     441.34219
       2.50000	     405.51996
       2.57813	     344.68494
       2.65625	     387.89700
       2.73438	     523.88574
       2.81250	     403.61166
       2.89063	     435.97592
       2.96875	     503.91904
       3.04688	     346.46515
       3.12500	     512.71771
       3.20313	     469.18542
       3.28125	     503.47079
       3.35938	     448.73206
       3.43750	     383.90112
       3.51563	     420.72232
       3.59375	     302.48462
       3.67188	     385.78381
       3.75000	     534.09320
       3.82813	     359.37500
       3.90625	     509.63113
       3.98438	     624.26996
       4.06250	     579.73871
       4.14063	     402.39496
       4.21875	     433.28635
       4.29688	     372.23358
       4.37500	     323.28381
       4.45313	     337.79456
       4.53125	     428.58606
       4.60938	     431.25000
       4.68750	     481.35245
       4.76563	     448.59119
       4.84375	     365.95798
       4.92188	     522.61780
       5.00000	     415.63779
       5.07813	     422.29764
       5.15625	     352.31812
       5.23438	     332.45389
       5.31250	     556.87756
       5.39063	     461.76996
       5.46875	     529.68750
       5.54688	     464.79251
       5.62500	     440.35602
       5.70313	     584.31097
       5.78125	     453.07376
       5.85938	     434.15726
       5.93750	     468.57068
       6.01563	     419.10858
       6.09375	     449.46207
       6.17188	     326.25513
       6.25000	     395.46619
       6.32813	     326.66495
       6.40625	     380.55838
       6.48438	     324.92316
       6.56250	     316.99539
       6.64063	     411.85962
       6.71875	     486.82120
       6.79688	     648.70642
       6.87500	     460.23309
       6.95313	     457.72284
       7.03125	     460.79660
       7.10938	     463.11475
       7.18750	     447.07990
       7.26563	     536.75714
       7.34375	     454.86679
       7.42188	     440.30481
       7.50000	     443.54507
       7.57813	     382.59476
       7.65625	     512.25665
       7.73438	     493.37857
       7.81250	     515.42004
       7.89063	     421.41391
       7.96875	     542.59729
       8.04688	     324.47488
       8.12500	     352.80481
       8.20313	     427.90726
       8.28125	     553.57324
       8.35938	     408.05582
       8.43750	     421.69568
       8.51563	     382.60757
       8.59375	     377.81763
       8.67188	     533.24792
       8.75000	     359.90009
       8.82813	     426.71619
       8.90625	     504.53378
       8.98438	     431.09631
       9.06250	     484.54147
       9.14063	     431.27560
       9.21875	     567.37958
       9.29688	     421.84937
       9.37500	     412.88422
       9.45313	     547.19519
       9.53125	     473.56555
       9.60938	     497.87396
       9.68750	     469.73615
       9.76563	     405.57120
       9.84375	     478.49640
       9.92188	     357.74844
      10.00000	     500.48666
      10.07813	     425.56351
      10.15625	     384.18289
      10.23438	     373.97540
      10.31250	     443.92929
      10.39063	     558.65778
      10.46875	     392.66138
      10.54688	     402.01074
      10.62500	     494.10858
      10.70313	     395.27408
      10.78125	     388.62704
      10.85938	     365.31763
      10.93750	     310.68134
      11.01563	     430.19977
      11.09375	     385.91187
      11.17188	     457.74844
      11.25000	     363.83197
      11.32813	     515.98358
      11.40625	     399.29559
      11.48438	     331.14752
      11.56250	     347.63062
      11.64063	     455.44312
      11.71875	     403.53482
      11.79688	     288.71671
      11.87500	     391.02200
      11.95313	     443.31454
      12.03125	     422.06711
      12.10938	     414.42108
      12.18750	     388.79355
      12.26563	     380.16138
      12.34375	     574.57733
      12.42188	     365.11270
      12.50000	     465.33041
      12.57813	     427.67673
      12.65625	     630.80170
      12.73438	     460.15625
      12.81250	     326.19107
      12.89063	     408.76022
      12.96875	     532.12091
      13.04688	     389.06250
      13.12500	     479.72592
      13.20313	     360.39957
      13.28125	     536.20642
      13.35938	     392.94312
      13.43750	     463.61423
      13.51563	     321.27304
      13.59375	     494.55685
      13.67188	     535.63013
      13.75000	     438.90881
      13.82813	     456.27560
      13.90625	     419.40317
      13.98438	     519.56964
      14.06250	     326.71619
      14.14063	     538.76794
      14.21875	     442.84067
      14.29688	     423.51434
      14.37500	     565.93237
      14.45313	     518.95490
      14.53125	     409.11884
      14.60938	     437.42316
      14.68750	     454.91803
      14.76563	     411.88522
      14.84375	     540.44568
      14.92188	     430.89139
      15.00000	     406.86475
      15.07813	     427.15164
      15.15625	     369.50562
      15.23438	     392.89191
      15.31250	     442.30276
      15.39063	     391.16290
      15.46875	     461.59067
      15.54688	     270.29968
      15.62500	     545.56860
      15.70313	     368.23770
      15.78125	     378.29147
      15.85938	     464.81812
      15.93750	     424.71823
      16.01563	     334.60553
      16.09375	     315.44568
      16.17188	     409.17007
      16.25000	     320.18442
      16.32813	     494.17264
      16.40625	     441.84167
      16.48438	     317.48206
      16.56250	     429.93082
      16.64063	     522.36169
      16.71875	     388.05072
      16.79688	     433.88831
      16.87500	     391.67520
      16.95313	     323.68082
      17.03125	     442.25153
      17.10938	     381.74948
      17.18750	     520.50458
      17.26563	     506.10910
      17.34375	     486.61627
      17.42188	     514.20337
      17.50000	     450.58911
      17.57813	     466.41904
      17.65625	     345.59424
      17.73438	     538.12756
      17.81250	     377.39496
      17.89063	     497.24640
      17.96875	     468.73718
      18.04688	     427.42059
      18.12500	     351.78021
      18.20313	     521.36267
      18.28125	     431.87756
      18.35938	     401.63934
      18.43750	     489.61319
      18.51563	     509.64395
      18.59375	     605.77612
      18.67188	     352.40778
      18.75000	     453.93185
      18.82813	     552.58710
      18.90625	     495.37653
      18.98438	     477.57428
      19.06250	     410.11783
      19.14063	     558.04303
      19.21875	     367.68698
      19.29688	     518.80121
      19.37500	     444.55685
      19.45313	     405.27664
      19.53125	     479.93082
      19.60938	     350.34579
      19.68750	     429.76434
      19.76563	     570.42773
      19.84375	     595.38934
      19.92188	     366.00922

Monitor Diode	 233699.76

"Cumulant 1.Order"
FluctuationFreq. [1/ms]	 3.5021E-001
DiffCoefficient [µm²/s]	 7.3698E-001
Hydrodyn. Radius [nm]	 2.8275E+002

"Cumulant 2.Order"
FluctuationFreq. [1/ms]	 3.7733E-001
DiffCoefficient [µm²/s]	 7.9404E-001
Hydrodyn. Radius [nm]	 2.6243E+002
Expansion Parameter µ2	 2.7876E-002

"Cumulant 3.Order"
FluctuationFreq. [1/ms]	 3.7915E-001
DiffCoefficient [µm²/s]	 7.9788E-001
Hydrodyn. Radius [nm]	 2.6117E+002
Expansion Parameter µ2	 3.2639E-002
Expansion Parameter µ3	 3.7961E-003

"StandardDeviation"
  1.25000E-004	  1.27191E-002
  2.50000E-004	  1.27200E-002
  3.75000E-004	  1.27208E-002
  5.00000E-004	  1.27217E-002
  6.25000E-004	  1.27226E-002
  7.50000E-004	  1.27235E-002
  8.75000E-004	  1.27244E-002
  1.00000E-003	  1.27253E-002
  1.12500E-003	  1.27234E-002
  1.25000E-003	  1.27228E-002
  1.37500E-003	  1.27222E-002
  1.50000E-003	  1.27217E-002
  1.62500E-003	  1.27214E-002
  1.75000E-003	  1.27209E-002
  1.87500E-003	  1.27201E-002
  2.00000E-003	  1.26463E-002
  2.25000E-003	  1.26465E-002
  2.50000E-003	  1.26464E-002
  2.75000E-003	  1.26465E-002
  3.00000E-003	  1.26465E-002
  3.25000E-003	  1.26466E-002
  3.50000E-003	  1.26466E-002
  3.75000E-003	  1.26465E-002
  4.00000E-003	  1.26092E-002
  4.50000E-003	  1.26084E-002
  5.00000E-003	  1.26084E-002
  5.50000E-003	  1.26084E-002
  6.00000E-003	  1.26084E-002
  6.50000E-003	  1.26084E-002
  7.00000E-003	  1.26083E-002
  7.50000E-003	  1.26083E-002
  8.00000E-003	  1.25892E-002
  9.00000E-003	  1.25877E-002
  1.00000E-002	  1.25876E-002
  1.10000E-002	  1.25875E-002
  1.20000E-002	  1.25875E-002
  1.30000E-002	  1.25874E-002
  1.40000E-002	  1.25873E-002
  1.50000E-002	  1.25873E-002
  1.60000E-002	  1.25771E-002
  1.80000E-002	  1.25741E-002
  2.00000E-002	  1.25738E-002
  2.20000E-002	  1.25736E-002
  2.40000E-002	  1.25734E-002
  2.60000E-002	  1.25733E-002
  2.80000E-002	  1.25729E-002
  3.00000E-002	  1.25725E-002
  3.20000E-002	  1.25660E-002
  3.60000E-002	  1.25600E-002
  4.00000E-002	  1.25594E-002
  4.40000E-002	  1.25589E-002
  4.80000E-002	  1.25580E-002
  5.20000E-002	  1.25572E-002
  5.60000E-002	  1.25562E-002
  6.00000E-002	  1.25553E-002
  6.40000E-002	  1.25481E-002
  7.20000E-002	  1.25360E-002
  8.00000E-002	  1.25344E-002
  8.80000E-002	  1.25325E-002
  9.60000E-002	  1.25306E-002
  1.04000E-001	  1.25287E-002
  1.12000E-001	  1.25260E-002
  1.20000E-001	  1.25236E-002
  1.28000E-001	  1.25128E-002
  1.44000E-001	  1.24879E-002
  1.60000E-001	  1.24818E-002
  1.76000E-001	  1.24754E-002
  1.92000E-001	  1.24676E-002
  2.08000E-001	  1.24609E-002
  2.24000E-001	  1.24526E-002
  2.40000E-001	  1.24442E-002
  2.56000E-001	  1.24289E-002
  2.88000E-001	  1.23796E-002
  3.20000E-001	  1.23587E-002
  3.52000E-001	  1.23372E-002
  3.84000E-001	  1.23121E-002
  4.16000E-001	  1.22876E-002
  4.48000E-001	  1.22595E-002
  4.80000E-001	  1.22307E-002
  5.12000E-001	  1.21819E-002
  5.76000E-001	  1.20640E-002
  6.40000E-001	  1.19933E-002
  7.04000E-001	  1.19185E-002
  7.68000E-001	  1.18428E-002
  8.32000E-001	  1.17613E-002
  8.96000E-001	  1.16772E-002
  9.60000E-001	  1.15921E-002
  1.02400E+000	  1.15469E-002
  1.15200E+000	  1.13195E-002
  1.28000E+000	  1.11444E-002
  1.40800E+000	  1.09641E-002
  1.53600E+000	  1.07783E-002
  1.66400E+000	  1.06060E-002
  1.79200E+000	  1.04218E-002
  1.92000E+000	  1.02361E-002
  2.01600E+000	  1.00527E-002
  2.27200E+000	  9.71018E-003
  2.52800E+000	  9.38867E-003
  2.78400E+000	  9.10495E-003
  3.04000E+000	  8.83009E-003
  3.29600E+000	  8.59531E-003
  3.55200E+000	  8.39403E-003
  3.80800E+000	  8.22864E-003
  4.06400E+000	  7.95956E-003
  4.57600E+000	  7.66425E-003
  5.08800E+000	  7.39896E-003
  5.60000E+000	  7.15982E-003
  6.11200E+000	  6.98166E-003
  6.62400E+000	  6.48193E-003
  7.13600E+000	  6.48193E-003
  7.64800E+000	  6.48193E-003
  8.16000E+000	  6.45277E-003
  9.18400E+000	  6.45277E-003
  1.02080E+001	  6.45277E-003
  1.12320E+001	  6.45277E-003
  1.22560E+001	  6.45277E-003
  1.32800E+001	  6.45277E-003
  1.43040E+001	  6.45277E-003
  1.53280E+001	  6.45277E-003
  1.63520E+001	  6.02400E-003
  1.84000E+001	  6.02400E-003
  2.04480E+001	  6.02400E-003
  2.24960E+001	  6.02400E-003
  2.45440E+001	  6.02400E-003
  2.65920E+001	  6.02400E-003
  2.86400E+001	  6.02400E-003
  3.06880E+001	  6.02400E-003
  3.27360E+001	  5.37953E-003
  3.68320E+001	  5.37953E-003
  4.09280E+001	  5.37953E-003
  4.50240E+001	  5.37953E-003
  4.91200E+001	  5.37953E-003
  5.32160E+001	  5.37953E-003
  5.73120E+001	  5.37953E-003
  6.14080E+001	  5.37953E-003
  6.55040E+001	  4.67507E-003
  7.36960E+001	  4.67507E-003
  8.18880E+001	  4.67507E-003
  9.00800E+001	  4.67507E-003
  9.82720E+001	  4.67507E-003
  1.06464E+002	  4.67507E-003
  1.14656E+002	  4.67507E-003
  1.22848E+002	  4.67507E-003
  1.31040E+002	  3.71136E-003
  1.47424E+002	  3.71136E-003
  1.63808E+002	  3.71136E-003
  1.80192E+002	  3.71136E-003
  1.96576E+002	  3.71136E-003
  2.12960E+002	  3.71136E-003
  2.29344E+002	  3.71136E-003
  2.45728E+002	  3.71136E-003
  2.62112E+002	  2.78117E-003
  2.94880E+002	  2.78117E-003
  3.27648E+002	  2.78117E-003
  3.60416E+002	  2.78117E-003
  3.93184E+002	  2.78117E-003
  4.25952E+002	  2.78117E-003
  4.58720E+002	  2.78117E-003
  4.91488E+002	  2.78117E-003
