ALV-6000/E-WIN Data
Date :	"11/13/2025"
Time :	"10:37:00 AM"
Samplename : 	"NaCl - 465nm"
SampMemo(0) : 	""
SampMemo(1) : 	""
SampMemo(2) : 	""
SampMemo(3) : 	""
SampMemo(4) : 	""
SampMemo(5) : 	""
SampMemo(6) : 	""
SampMemo(7) : 	""
SampMemo(8) : 	""
SampMemo(9) : 	""
Temperature [K] :	     291.91053
Viscosity [cp]  :	       1.03279
Refractive Index:	       1.33200
Wavelength [nm] :	     632.80000
Angle [°]       :	      52.99900
Duration [s]    :	        20
Runs            :	         1
Mode            :	"SINGLE AUTO CH0 "
MeanCR0 [kHz]   :	     534.47565
MeanCR1 [kHz]   :	       0.00000

"Correlation"
  1.25000E-004	  6.05005E-001
  2.50000E-004	  7.88986E-001
  3.75000E-004	  7.86796E-001
  5.00000E-004	  7.86902E-001
  6.25000E-004	  7.86195E-001
  7.50000E-004	  7.82688E-001
  8.75000E-004	  7.84082E-001
  1.00000E-003	  7.83087E-001
  1.12500E-003	  7.82184E-001
  1.25000E-003	  7.81337E-001
  1.37500E-003	  7.86442E-001
  1.50000E-003	  7.83195E-001
  1.62500E-003	  7.83327E-001
  1.75000E-003	  7.86023E-001
  1.87500E-003	  7.84748E-001
  2.00000E-003	  7.83093E-001
  2.25000E-003	  7.82930E-001
  2.50000E-003	  7.83877E-001
  2.75000E-003	  7.82695E-001
  3.00000E-003	  7.82497E-001
  3.25000E-003	  7.84214E-001
  3.50000E-003	  7.83488E-001
  3.75000E-003	  7.82944E-001
  4.00000E-003	  7.83273E-001
  4.50000E-003	  7.83958E-001
  5.00000E-003	  7.82971E-001
  5.50000E-003	  7.82110E-001
  6.00000E-003	  7.82020E-001
  6.50000E-003	  7.82508E-001
  7.00000E-003	  7.82860E-001
  7.50000E-003	  7.83666E-001
  8.00000E-003	  7.82621E-001
  9.00000E-003	  7.82678E-001
  1.00000E-002	  7.81219E-001
  1.10000E-002	  7.81371E-001
  1.20000E-002	  7.81481E-001
  1.30000E-002	  7.81526E-001
  1.40000E-002	  7.81528E-001
  1.50000E-002	  7.81140E-001
  1.60000E-002	  7.81200E-001
  1.80000E-002	  7.81291E-001
  2.00000E-002	  7.80051E-001
  2.20000E-002	  7.80068E-001
  2.40000E-002	  7.80163E-001
  2.60000E-002	  7.79429E-001
  2.80000E-002	  7.79045E-001
  3.00000E-002	  7.79109E-001
  3.20000E-002	  7.78480E-001
  3.60000E-002	  7.77692E-001
  4.00000E-002	  7.77084E-001
  4.40000E-002	  7.76630E-001
  4.80000E-002	  7.75929E-001
  5.20000E-002	  7.74937E-001
  5.60000E-002	  7.74286E-001
  6.00000E-002	  7.73862E-001
  6.40000E-002	  7.73247E-001
  7.20000E-002	  7.72013E-001
  8.00000E-002	  7.70464E-001
  8.80000E-002	  7.69128E-001
  9.60000E-002	  7.68128E-001
  1.04000E-001	  7.66689E-001
  1.12000E-001	  7.65473E-001
  1.20000E-001	  7.64249E-001
  1.28000E-001	  7.62659E-001
  1.44000E-001	  7.60197E-001
  1.60000E-001	  7.57780E-001
  1.76000E-001	  7.54999E-001
  1.92000E-001	  7.52585E-001
  2.08000E-001	  7.50126E-001
  2.24000E-001	  7.47483E-001
  2.40000E-001	  7.45145E-001
  2.56000E-001	  7.42601E-001
  2.88000E-001	  7.37684E-001
  3.20000E-001	  7.32610E-001
  3.52000E-001	  7.27857E-001
  3.84000E-001	  7.23115E-001
  4.16000E-001	  7.18209E-001
  4.48000E-001	  7.13627E-001
  4.80000E-001	  7.08918E-001
  5.12000E-001	  7.04248E-001
  5.76000E-001	  6.94963E-001
  6.40000E-001	  6.85973E-001
  7.04000E-001	  6.77232E-001
  7.68000E-001	  6.68458E-001
  8.32000E-001	  6.59890E-001
  8.96000E-001	  6.51225E-001
  9.60000E-001	  6.42725E-001
  1.02400E+000	  6.33994E-001
  1.15200E+000	  6.17344E-001
  1.28000E+000	  6.01328E-001
  1.40800E+000	  5.85935E-001
  1.53600E+000	  5.70766E-001
  1.66400E+000	  5.56007E-001
  1.79200E+000	  5.41781E-001
  1.92000E+000	  5.27694E-001
  2.01600E+000	  5.16686E-001
  2.27200E+000	  4.90830E-001
  2.52800E+000	  4.66600E-001
  2.78400E+000	  4.44087E-001
  3.04000E+000	  4.23022E-001
  3.29600E+000	  4.03301E-001
  3.55200E+000	  3.84270E-001
  3.80800E+000	  3.65843E-001
  4.06400E+000	  3.48764E-001
  4.57600E+000	  3.16118E-001
  5.08800E+000	  2.88021E-001
  5.60000E+000	  2.63470E-001
  6.11200E+000	  2.41929E-001
  6.62400E+000	  2.22271E-001
  7.13600E+000	  2.04127E-001
  7.64800E+000	  1.87436E-001
  8.16000E+000	  1.73399E-001
  9.18400E+000	  1.47723E-001
  1.02080E+001	  1.30016E-001
  1.12320E+001	  1.15098E-001
  1.22560E+001	  1.00801E-001
  1.32800E+001	  8.84996E-002
  1.43040E+001	  7.82022E-002
  1.53280E+001	  6.98466E-002
  1.63520E+001	  6.22741E-002
  1.84000E+001	  4.78746E-002
  2.04480E+001	  3.52313E-002
  2.24960E+001	  2.07551E-002
  2.45440E+001	  7.68464E-003
  2.65920E+001	 -6.99993E-003
  2.86400E+001	 -1.78785E-002
  3.06880E+001	 -2.03794E-002
  3.27360E+001	 -1.82310E-002
  3.68320E+001	 -1.80167E-002
  4.09280E+001	 -1.85622E-002
  4.50240E+001	 -1.64511E-002
  4.91200E+001	 -6.02082E-003
  5.32160E+001	 -5.01152E-003
  5.73120E+001	 -3.51398E-003
  6.14080E+001	 -1.28345E-003
  6.55040E+001	  3.03674E-003
  7.36960E+001	  1.17353E-003
  8.18880E+001	 -1.44617E-002
  9.00800E+001	 -1.35206E-002
  9.82720E+001	 -5.29875E-003
  1.06464E+002	  2.97614E-003
  1.14656E+002	  1.73839E-003
  1.22848E+002	 -1.20937E-002
  1.31040E+002	 -2.09439E-002
  1.47424E+002	 -2.04098E-002
  1.63808E+002	 -4.81248E-004
  1.80192E+002	 -6.87591E-003
  1.96576E+002	 -8.34585E-003
  2.12960E+002	  2.63511E-003
  2.29344E+002	  4.15454E-003
  2.45728E+002	  4.15459E-003
  2.62112E+002	  1.34209E-002
  2.94880E+002	  6.80797E-003
  3.27648E+002	 -6.09360E-003
  3.60416E+002	 -4.22237E-003
  3.93184E+002	 -4.03709E-003
  4.25952E+002	  1.06487E-002
  4.58720E+002	 -5.46415E-003
  4.91488E+002	 -4.07262E-003
  5.24256E+002	 -1.16479E-003
  5.89792E+002	  1.38081E-002
  6.55328E+002	  1.21608E-002
  7.20864E+002	 -8.45761E-003
  7.86400E+002	 -6.87205E-003
  8.51936E+002	  5.08699E-003
  9.17472E+002	 -5.47975E-003
  9.83008E+002	  2.38504E-005
  1.04854E+003	  6.52695E-004
  1.17962E+003	  6.38953E-003
  1.31069E+003	 -5.32952E-003
  1.44176E+003	  2.72894E-003
  1.57283E+003	 -7.97111E-003
  1.70390E+003	  5.04754E-003
  1.83498E+003	  7.19054E-003
  1.96605E+003	  4.58649E-003
  2.09712E+003	 -5.91474E-004
  2.35926E+003	  1.18192E-003
  2.62141E+003	 -4.63998E-003
  2.88355E+003	 -4.60227E-004
  3.14570E+003	 -4.79664E-003
  3.40784E+003	  3.83037E-003
  3.66998E+003	 -1.99474E-003
  3.93213E+003	 -1.97634E-003
  4.19427E+003	 -7.40013E-004
  4.71856E+003	 -5.99031E-003
  5.24285E+003	 -4.65485E-003
  5.76714E+003	 -2.72579E-003
  6.29142E+003	 -2.09788E-003
  6.81571E+003	 -1.00590E-004
  7.34000E+003	 -6.17871E-004
  7.86429E+003	 -1.11639E-003

"Count Rate"
       0.07813	     684.29816
       0.15625	     391.62396
       0.23438	     484.97693
       0.31250	     640.62500
       0.39063	     396.93903
       0.46875	     511.71875
       0.54688	     917.32837
       0.62500	     707.28735
       0.70313	     790.75305
       0.78125	     486.88522
       0.85938	     566.32941
       0.93750	     434.43903
       1.01563	     571.04248
       1.09375	     287.57684
       1.17188	     489.07529
       1.25000	     467.18750
       1.32813	     547.20795
       1.40625	     632.08246
       1.48438	     630.62244
       1.56250	     394.28790
       1.64063	     547.43854
       1.71875	     648.28381
       1.79688	     528.16339
       1.87500	     562.11578
       1.95313	     302.39496
       2.03125	     651.56250
       2.10938	     960.87341
       2.18750	     319.65930
       2.26563	     461.14240
       2.34375	     498.48871
       2.42188	     368.16086
       2.50000	     641.99536
       2.57813	     346.91342
       2.65625	     447.29764
       2.73438	     717.90466
       2.81250	     440.94516
       2.89063	     570.18439
       2.96875	     475.62753
       3.04688	     801.49841
       3.12500	     614.08807
       3.20313	     597.61780
       3.28125	     613.47333
       3.35938	     483.96515
       3.43750	     340.25357
       3.51563	     501.94672
       3.59375	     768.73718
       3.67188	     561.09119
       3.75000	     699.57733
       3.82813	     563.80634
       3.90625	     475.90930
       3.98438	     438.74231
       4.06250	     289.25461
       4.14063	     591.48309
       4.21875	     535.75818
       4.29688	     343.03278
       4.37500	     325.87088
       4.45313	     553.79095
       4.53125	     465.48410
       4.60938	     566.77765
       4.68750	     457.30020
       4.76563	     680.77612
       4.84375	     579.77716
       4.92188	     585.60449
       5.00000	     338.26843
       5.07813	     704.98206
       5.15625	     612.11578
       5.23438	     493.58350
       5.31250	     513.14038
       5.39063	     707.15930
       5.46875	     615.68903
       5.54688	     673.53992
       5.62500	     674.84631
       5.70313	     369.28790
       5.78125	     572.72028
       5.85938	     515.50970
       5.93750	     440.20233
       6.01563	     332.96619
       6.09375	     660.66852
       6.17188	     283.18390
       6.25000	     677.52301
       6.32813	     850.75562
       6.40625	     349.93594
       6.48438	     869.08295
       6.56250	     854.75153
       6.64063	     262.61526
       6.71875	     302.66394
       6.79688	     649.87189
       6.87500	     610.25867
       6.95313	     455.98102
       7.03125	     322.66904
       7.10938	     380.44312
       7.18750	     466.61115
       7.26563	     530.92981
       7.34375	     734.69519
       7.42188	     615.35602
       7.50000	     382.01843
       7.57813	     780.82733
       7.65625	     505.96823
       7.73438	     439.40829
       7.81250	     409.11884
       7.89063	     554.36731
       7.96875	     539.25458
       8.04688	     529.43134
       8.12500	     597.48975
       8.20313	     288.35809
       8.28125	     432.06967
       8.35938	     863.06348
       8.43750	     728.67572
       8.51563	     421.50357
       8.59375	     475.40982
       8.67188	     487.56403
       8.75000	     372.87396
       8.82813	     478.45798
       8.90625	     378.73975
       8.98438	     590.68903
       9.06250	     568.42981
       9.14063	     609.19568
       9.21875	     812.98663
       9.29688	     384.57990
       9.37500	     499.76944
       9.45313	     596.59320
       9.53125	     717.81506
       9.60938	     499.64139
       9.68750	     588.40930
       9.76563	     634.40057
       9.84375	     770.36371
       9.92188	     721.02966
      10.00000	     285.05377
      10.07813	     873.38623
      10.15625	     373.92416
      10.23438	    1061.41138
      10.31250	     527.92004
      10.39063	     839.93335
      10.46875	     562.53839
      10.54688	     519.55682
      10.62500	     404.63626
      10.70313	     470.14600
      10.78125	     691.06042
      10.85938	     756.08350
      10.93750	     465.81711
      11.01563	     476.57529
      11.09375	     590.86835
      11.17188	     389.56198
      11.25000	     523.27100
      11.32813	     342.80225
      11.40625	     798.11731
      11.48438	     658.20953
      11.56250	     494.65930
      11.64063	     489.28021
      11.71875	     449.55173
      11.79688	    1062.97388
      11.87500	     615.88110
      11.95313	     631.59576
      12.03125	     657.81250
      12.10938	     428.39395
      12.18750	     346.52921
      12.26563	     511.71875
      12.34375	     507.45389
      12.42188	     530.92981
      12.50000	     819.72333
      12.57813	     631.30121
      12.65625	     456.58298
      12.73438	     472.56659
      12.81250	     407.35141
      12.89063	     718.05841
      12.96875	     401.11423
      13.04688	     373.41187
      13.12500	     708.92670
      13.20313	    1002.33093
      13.28125	     461.30890
      13.35938	     406.49332
      13.43750	     617.76379
      13.51563	     591.43182
      13.59375	     501.25510
      13.67188	     667.46924
      13.75000	    1158.14551
      13.82813	     487.88422
      13.90625	     390.03586
      13.98438	     315.58658
      14.06250	     332.04404
      14.14063	     541.68799
      14.21875	     286.43698
      14.29688	     505.27661
      14.37500	     362.33350
      14.45313	     390.70184
      14.53125	     453.62448
      14.60938	     489.57477
      14.68750	     296.22180
      14.76563	     531.27557
      14.84375	     303.31711
      14.92188	     444.09579
      15.00000	     558.42725
      15.07813	     431.96719
      15.15625	     627.56146
      15.23438	     379.23923
      15.31250	     320.79916
      15.39063	     405.19980
      15.46875	     667.30273
      15.54688	     612.03894
      15.62500	     512.17981
      15.70313	     565.29199
      15.78125	     357.69724
      15.85938	     394.95389
      15.93750	     544.39038
      16.01563	     531.86475
      16.09375	     525.05121
      16.17188	     474.29559
      16.25000	     457.42825
      16.32813	     472.19516
      16.40625	     424.67981
      16.48438	     559.01636
      16.56250	     637.43597
      16.64063	     522.11835
      16.71875	     366.85449
      16.79688	     450.96054
      16.87500	     443.42981
      16.95313	     578.84222
      17.03125	     445.94006
      17.10938	     565.47131
      17.18750	     439.04968
      17.26563	     549.38525
      17.34375	     579.18799
      17.42188	     252.40778
      17.50000	    1090.68896
      17.57813	     591.81604
      17.65625	     408.91391
      17.73438	     565.80426
      17.81250	     285.55328
      17.89063	     494.36475
      17.96875	     745.53021
      18.04688	     376.03738
      18.12500	     789.90778
      18.20313	     491.68799
      18.28125	     470.47897
      18.35938	     522.63062
      18.43750	     563.84479
      18.51563	     596.46515
      18.59375	     491.70081
      18.67188	     591.18854
      18.75000	     708.04303
      18.82813	     406.77509
      18.90625	     324.92316
      18.98438	     592.91748
      19.06250	     268.27612
      19.14063	     459.74640
      19.21875	     425.52509
      19.29688	     680.98102
      19.37500	     389.75409
      19.45313	     482.60757
      19.53125	     526.47284
      19.60938	     486.41135
      19.68750	     625.01282
      19.76563	     410.83502
      19.84375	     362.46158
      19.92188	     563.34528

Monitor Diode	  33113.11

"Cumulant 1.Order"
FluctuationFreq. [1/ms]	 9.2725E-002
DiffCoefficient [µm²/s]	 6.6567E-001
Hydrodyn. Radius [nm]	 3.1085E+002

"Cumulant 2.Order"
FluctuationFreq. [1/ms]	 1.0746E-001
DiffCoefficient [µm²/s]	 7.7145E-001
Hydrodyn. Radius [nm]	 2.6823E+002
Expansion Parameter µ2	 3.7856E-003

"Cumulant 3.Order"
FluctuationFreq. [1/ms]	 1.0579E-001
DiffCoefficient [µm²/s]	 7.5949E-001
Hydrodyn. Radius [nm]	 2.7246E+002
Expansion Parameter µ2	 2.6778E-003
Expansion Parameter µ3	-2.1974E-004

"StandardDeviation"
  1.25000E-004	  2.38552E-002
  2.50000E-004	  2.38556E-002
  3.75000E-004	  2.38561E-002
  5.00000E-004	  2.38565E-002
  6.25000E-004	  2.38570E-002
  7.50000E-004	  2.38575E-002
  8.75000E-004	  2.38579E-002
  1.00000E-003	  2.38584E-002
  1.12500E-003	  2.38573E-002
  1.25000E-003	  2.38571E-002
  1.37500E-003	  2.38569E-002
  1.50000E-003	  2.38566E-002
  1.62500E-003	  2.38563E-002
  1.75000E-003	  2.38562E-002
  1.87500E-003	  2.38559E-002
  2.00000E-003	  2.38296E-002
  2.25000E-003	  2.38298E-002
  2.50000E-003	  2.38298E-002
  2.75000E-003	  2.38298E-002
  3.00000E-003	  2.38298E-002
  3.25000E-003	  2.38299E-002
  3.50000E-003	  2.38299E-002
  3.75000E-003	  2.38299E-002
  4.00000E-003	  2.38167E-002
  4.50000E-003	  2.38164E-002
  5.00000E-003	  2.38164E-002
  5.50000E-003	  2.38165E-002
  6.00000E-003	  2.38165E-002
  6.50000E-003	  2.38165E-002
  7.00000E-003	  2.38165E-002
  7.50000E-003	  2.38166E-002
  8.00000E-003	  2.38098E-002
  9.00000E-003	  2.38091E-002
  1.00000E-002	  2.38092E-002
  1.10000E-002	  2.38092E-002
  1.20000E-002	  2.38093E-002
  1.30000E-002	  2.38093E-002
  1.40000E-002	  2.38094E-002
  1.50000E-002	  2.38094E-002
  1.60000E-002	  2.38058E-002
  1.80000E-002	  2.38044E-002
  2.00000E-002	  2.38046E-002
  2.20000E-002	  2.38046E-002
  2.40000E-002	  2.38047E-002
  2.60000E-002	  2.38048E-002
  2.80000E-002	  2.38049E-002
  3.00000E-002	  2.38049E-002
  3.20000E-002	  2.38025E-002
  3.60000E-002	  2.37998E-002
  4.00000E-002	  2.38000E-002
  4.40000E-002	  2.38000E-002
  4.80000E-002	  2.38001E-002
  5.20000E-002	  2.38003E-002
  5.60000E-002	  2.38003E-002
  6.00000E-002	  2.38003E-002
  6.40000E-002	  2.37942E-002
  7.20000E-002	  2.37885E-002
  8.00000E-002	  2.37888E-002
  8.80000E-002	  2.37889E-002
  9.60000E-002	  2.37889E-002
  1.04000E-001	  2.37890E-002
  1.12000E-001	  2.37889E-002
  1.20000E-001	  2.37888E-002
  1.28000E-001	  2.37838E-002
  1.44000E-001	  2.37724E-002
  1.60000E-001	  2.37721E-002
  1.76000E-001	  2.37719E-002
  1.92000E-001	  2.37675E-002
  2.08000E-001	  2.37670E-002
  2.24000E-001	  2.37662E-002
  2.40000E-001	  2.37650E-002
  2.56000E-001	  2.37582E-002
  2.88000E-001	  2.37375E-002
  3.20000E-001	  2.37328E-002
  3.52000E-001	  2.37312E-002
  3.84000E-001	  2.37273E-002
  4.16000E-001	  2.37253E-002
  4.48000E-001	  2.37190E-002
  4.80000E-001	  2.37134E-002
  5.12000E-001	  2.36945E-002
  5.76000E-001	  2.36509E-002
  6.40000E-001	  2.36412E-002
  7.04000E-001	  2.36283E-002
  7.68000E-001	  2.36165E-002
  8.32000E-001	  2.36027E-002
  8.96000E-001	  2.35882E-002
  9.60000E-001	  2.35722E-002
  1.02400E+000	  2.35816E-002
  1.15200E+000	  2.34664E-002
  1.28000E+000	  2.34249E-002
  1.40800E+000	  2.33809E-002
  1.53600E+000	  2.33324E-002
  1.66400E+000	  2.32875E-002
  1.79200E+000	  2.32324E-002
  1.92000E+000	  2.31615E-002
  2.01600E+000	  2.30024E-002
  2.27200E+000	  2.28114E-002
  2.52800E+000	  2.26929E-002
  2.78400E+000	  2.25673E-002
  3.04000E+000	  2.24265E-002
  3.29600E+000	  2.22779E-002
  3.55200E+000	  2.21283E-002
  3.80800E+000	  2.19957E-002
  4.06400E+000	  2.18141E-002
  4.57600E+000	  2.13701E-002
  5.08800E+000	  2.10420E-002
  5.60000E+000	  2.07060E-002
  6.11200E+000	  2.03720E-002
  6.62400E+000	  2.00225E-002
  7.13600E+000	  1.96777E-002
  7.64800E+000	  1.93340E-002
  8.16000E+000	  1.90294E-002
  9.18400E+000	  1.82977E-002
  1.02080E+001	  1.76510E-002
  1.12320E+001	  1.70036E-002
  1.22560E+001	  1.63820E-002
  1.32800E+001	  1.25579E-002
  1.43040E+001	  1.25579E-002
  1.53280E+001	  1.25579E-002
  1.63520E+001	  1.22437E-002
  1.84000E+001	  1.22437E-002
  2.04480E+001	  1.22437E-002
  2.24960E+001	  1.22437E-002
  2.45440E+001	  1.22437E-002
  2.65920E+001	  1.22437E-002
  2.86400E+001	  1.22437E-002
  3.06880E+001	  1.22437E-002
  3.27360E+001	  1.14742E-002
  3.68320E+001	  1.14742E-002
  4.09280E+001	  1.14742E-002
  4.50240E+001	  1.14742E-002
  4.91200E+001	  1.14742E-002
  5.32160E+001	  1.14742E-002
  5.73120E+001	  1.14742E-002
  6.14080E+001	  1.14742E-002
  6.55040E+001	  1.15407E-002
  7.36960E+001	  1.15407E-002
  8.18880E+001	  1.15407E-002
  9.00800E+001	  1.15407E-002
  9.82720E+001	  1.15407E-002
  1.06464E+002	  1.15407E-002
  1.14656E+002	  1.15407E-002
  1.22848E+002	  1.15407E-002
  1.31040E+002	  1.04543E-002
  1.47424E+002	  1.04543E-002
  1.63808E+002	  1.04543E-002
  1.80192E+002	  1.04543E-002
  1.96576E+002	  1.04543E-002
  2.12960E+002	  1.04543E-002
  2.29344E+002	  1.04543E-002
  2.45728E+002	  1.04543E-002
  2.62112E+002	  8.82321E-003
  2.94880E+002	  8.82321E-003
  3.27648E+002	  8.82321E-003
  3.60416E+002	  8.82321E-003
  3.93184E+002	  8.82321E-003
  4.25952E+002	  8.82321E-003
  4.58720E+002	  8.82321E-003
  4.91488E+002	  8.82321E-003
