ALV-6000/E-WIN Data
Date :	"11/13/2025"
Time :	"11:42:04 AM"
Samplename : 	"NaCl - 465nm"
SampMemo(0) : 	""
SampMemo(1) : 	""
SampMemo(2) : 	""
SampMemo(3) : 	""
SampMemo(4) : 	""
SampMemo(5) : 	""
SampMemo(6) : 	""
SampMemo(7) : 	""
SampMemo(8) : 	""
SampMemo(9) : 	""
Temperature [K] :	     292.06810
Viscosity [cp]  :	       1.02876
Refractive Index:	       1.33200
Wavelength [nm] :	     632.80000
Angle [°]       :	      90.99900
Duration [s]    :	        20
Runs            :	         1
Mode            :	"SINGLE AUTO CH0 "
MeanCR0 [kHz]   :	     345.66437
MeanCR1 [kHz]   :	       0.00000

"Correlation"
  1.25000E-004	  1.25074E+000
  2.50000E-004	  1.63950E+000
  3.75000E-004	  1.63179E+000
  5.00000E-004	  1.62706E+000
  6.25000E-004	  1.62604E+000
  7.50000E-004	  1.62869E+000
  8.75000E-004	  1.63018E+000
  1.00000E-003	  1.62487E+000
  1.12500E-003	  1.62306E+000
  1.25000E-003	  1.61943E+000
  1.37500E-003	  1.62309E+000
  1.50000E-003	  1.62064E+000
  1.62500E-003	  1.61463E+000
  1.75000E-003	  1.61990E+000
  1.87500E-003	  1.62061E+000
  2.00000E-003	  1.62195E+000
  2.25000E-003	  1.62017E+000
  2.50000E-003	  1.61839E+000
  2.75000E-003	  1.61976E+000
  3.00000E-003	  1.61741E+000
  3.25000E-003	  1.61711E+000
  3.50000E-003	  1.61591E+000
  3.75000E-003	  1.61652E+000
  4.00000E-003	  1.61587E+000
  4.50000E-003	  1.61725E+000
  5.00000E-003	  1.61624E+000
  5.50000E-003	  1.61629E+000
  6.00000E-003	  1.61558E+000
  6.50000E-003	  1.61452E+000
  7.00000E-003	  1.61429E+000
  7.50000E-003	  1.61418E+000
  8.00000E-003	  1.61413E+000
  9.00000E-003	  1.61416E+000
  1.00000E-002	  1.61239E+000
  1.10000E-002	  1.61034E+000
  1.20000E-002	  1.61200E+000
  1.30000E-002	  1.61004E+000
  1.40000E-002	  1.60913E+000
  1.50000E-002	  1.60879E+000
  1.60000E-002	  1.60761E+000
  1.80000E-002	  1.60576E+000
  2.00000E-002	  1.60310E+000
  2.20000E-002	  1.60330E+000
  2.40000E-002	  1.60193E+000
  2.60000E-002	  1.59851E+000
  2.80000E-002	  1.59606E+000
  3.00000E-002	  1.59625E+000
  3.20000E-002	  1.59344E+000
  3.60000E-002	  1.59043E+000
  4.00000E-002	  1.58645E+000
  4.40000E-002	  1.58312E+000
  4.80000E-002	  1.57842E+000
  5.20000E-002	  1.57562E+000
  5.60000E-002	  1.57315E+000
  6.00000E-002	  1.56862E+000
  6.40000E-002	  1.56518E+000
  7.20000E-002	  1.55851E+000
  8.00000E-002	  1.55145E+000
  8.80000E-002	  1.54426E+000
  9.60000E-002	  1.53838E+000
  1.04000E-001	  1.53124E+000
  1.12000E-001	  1.52436E+000
  1.20000E-001	  1.51789E+000
  1.28000E-001	  1.51090E+000
  1.44000E-001	  1.49795E+000
  1.60000E-001	  1.48419E+000
  1.76000E-001	  1.47169E+000
  1.92000E-001	  1.45834E+000
  2.08000E-001	  1.44592E+000
  2.24000E-001	  1.43354E+000
  2.40000E-001	  1.42109E+000
  2.56000E-001	  1.40856E+000
  2.88000E-001	  1.38370E+000
  3.20000E-001	  1.35954E+000
  3.52000E-001	  1.33585E+000
  3.84000E-001	  1.31214E+000
  4.16000E-001	  1.28939E+000
  4.48000E-001	  1.26680E+000
  4.80000E-001	  1.24491E+000
  5.12000E-001	  1.22285E+000
  5.76000E-001	  1.18060E+000
  6.40000E-001	  1.13953E+000
  7.04000E-001	  1.09945E+000
  7.68000E-001	  1.06137E+000
  8.32000E-001	  1.02499E+000
  8.96000E-001	  9.89804E-001
  9.60000E-001	  9.55741E-001
  1.02400E+000	  9.22778E-001
  1.15200E+000	  8.60645E-001
  1.28000E+000	  8.03409E-001
  1.40800E+000	  7.49626E-001
  1.53600E+000	  6.99970E-001
  1.66400E+000	  6.54387E-001
  1.79200E+000	  6.12029E-001
  1.92000E+000	  5.71875E-001
  2.01600E+000	  5.46418E-001
  2.27200E+000	  4.78680E-001
  2.52800E+000	  4.18224E-001
  2.78400E+000	  3.64903E-001
  3.04000E+000	  3.16313E-001
  3.29600E+000	  2.73920E-001
  3.55200E+000	  2.37744E-001
  3.80800E+000	  2.05800E-001
  4.06400E+000	  1.79154E-001
  4.57600E+000	  1.36280E-001
  5.08800E+000	  1.02137E-001
  5.60000E+000	  7.55481E-002
  6.11200E+000	  5.95024E-002
  6.62400E+000	  4.90035E-002
  7.13600E+000	  4.00389E-002
  7.64800E+000	  3.30961E-002
  8.16000E+000	  2.69736E-002
  9.18400E+000	  1.32895E-002
  1.02080E+001	  6.54614E-003
  1.12320E+001	  5.85854E-003
  1.22560E+001	  1.57501E-003
  1.32800E+001	  1.06737E-003
  1.43040E+001	  4.47507E-004
  1.53280E+001	 -3.66465E-003
  1.63520E+001	 -8.88110E-003
  1.84000E+001	 -1.16215E-002
  2.04480E+001	 -6.98020E-003
  2.24960E+001	 -9.68737E-003
  2.45440E+001	 -2.48352E-003
  2.65920E+001	 -3.99367E-003
  2.86400E+001	 -1.02478E-002
  3.06880E+001	 -1.44432E-002
  3.27360E+001	 -1.09885E-002
  3.68320E+001	 -9.57448E-003
  4.09280E+001	 -4.36104E-003
  4.50240E+001	 -4.43174E-003
  4.91200E+001	 -2.86351E-003
  5.32160E+001	 -2.92713E-003
  5.73120E+001	 -1.38297E-002
  6.14080E+001	 -5.21388E-003
  6.55040E+001	 -1.11531E-002
  7.36960E+001	 -6.35480E-003
  8.18880E+001	 -4.80614E-003
  9.00800E+001	  9.23342E-003
  9.82720E+001	  4.68979E-003
  1.06464E+002	 -4.25619E-004
  1.14656E+002	 -9.78887E-003
  1.22848E+002	  7.26311E-003
  1.31040E+002	  7.74733E-003
  1.47424E+002	  5.93431E-003
  1.63808E+002	  3.32482E-003
  1.80192E+002	  1.30104E-003
  1.96576E+002	 -2.41184E-003
  2.12960E+002	  9.76946E-003
  2.29344E+002	 -6.25409E-003
  2.45728E+002	 -2.22402E-003
  2.62112E+002	  1.16703E-003
  2.94880E+002	  2.90339E-003
  3.27648E+002	  2.73362E-003
  3.60416E+002	  4.65514E-005
  3.93184E+002	  9.10409E-003
  4.25952E+002	  1.53325E-003
  4.58720E+002	  1.37037E-003
  4.91488E+002	 -7.32552E-003
  5.24256E+002	  3.55599E-004
  5.89792E+002	  4.41715E-003
  6.55328E+002	  1.58409E-003
  7.20864E+002	  7.28499E-003
  7.86400E+002	 -1.98001E-003
  8.51936E+002	  5.81654E-003
  9.17472E+002	 -1.33969E-003
  9.83008E+002	  1.42953E-003
  1.04854E+003	  6.89316E-004
  1.17962E+003	 -2.77079E-004
  1.31069E+003	 -1.98980E-003
  1.44176E+003	  1.39504E-003
  1.57283E+003	  1.11601E-003
  1.70390E+003	  1.03210E-003
  1.83498E+003	 -3.78141E-004
  1.96605E+003	 -1.33925E-003
  2.09712E+003	 -1.04798E-003
  2.35926E+003	 -2.36716E-003
  2.62141E+003	 -3.13968E-003
  2.88355E+003	 -3.00463E-003
  3.14570E+003	 -4.94529E-004
  3.40784E+003	 -1.08794E-003
  3.66998E+003	 -2.96071E-003
  3.93213E+003	 -1.06823E-003
  4.19427E+003	 -2.85116E-003
  4.71856E+003	 -9.53433E-004
  5.24285E+003	  1.24782E-003
  5.76714E+003	 -1.02419E-004
  6.29142E+003	 -3.56574E-003
  6.81571E+003	  2.26638E-003
  7.34000E+003	  1.48512E-003
  7.86429E+003	 -9.47380E-004

"Count Rate"
       0.07813	     305.91699
       0.15625	     369.67212
       0.23438	     324.07785
       0.31250	     425.52509
       0.39063	     384.65674
       0.46875	     316.99539
       0.54688	     341.29099
       0.62500	     340.79147
       0.70313	     308.92673
       0.78125	     251.15266
       0.85938	     391.62396
       0.93750	     403.29147
       1.01563	     335.22028
       1.09375	     264.33145
       1.17188	     250.00000
       1.25000	     394.21106
       1.32813	     349.70541
       1.40625	     397.97641
       1.48438	     314.90778
       1.56250	     341.57272
       1.64063	     306.00665
       1.71875	     265.84271
       1.79688	     319.44159
       1.87500	     378.72693
       1.95313	     467.44363
       2.03125	     407.55634
       2.10938	     316.55994
       2.18750	     312.41034
       2.26563	     274.94876
       2.34375	     396.67007
       2.42188	     359.33658
       2.50000	     354.99487
       2.57813	     261.43698
       2.65625	     476.81863
       2.73438	     367.40521
       2.81250	     409.60553
       2.89063	     325.14087
       2.96875	     265.01022
       3.04688	     446.86218
       3.12500	     292.21310
       3.20313	     298.36066
       3.28125	     324.05225
       3.35938	     404.43134
       3.43750	     190.61218
       3.51563	     329.02151
       3.59375	     410.74539
       3.67188	     392.85349
       3.75000	     320.44055
       3.82813	     299.76947
       3.90625	     370.50461
       3.98438	     282.72284
       4.06250	     370.46619
       4.14063	     330.26382
       4.21875	     386.14240
       4.29688	     429.77713
       4.37500	     305.07172
       4.45313	     337.99948
       4.53125	     315.33041
       4.60938	     411.06555
       4.68750	     345.12039
       4.76563	     410.47641
       4.84375	     415.44568
       4.92188	     309.27252
       5.00000	     326.78021
       5.07813	     255.86577
       5.15625	     333.99078
       5.23438	     333.54251
       5.31250	     427.01074
       5.39063	     437.61526
       5.46875	     547.31042
       5.54688	     383.79865
       5.62500	     370.05634
       5.70313	     293.46823
       5.78125	     299.55173
       5.85938	     331.73666
       5.93750	     405.80173
       6.01563	     401.42160
       6.09375	     345.35092
       6.17188	     334.27252
       6.25000	     466.93134
       6.32813	     264.52356
       6.40625	     440.20233
       6.48438	     273.27100
       6.56250	     403.62448
       6.64063	     307.99179
       6.71875	     459.14444
       6.79688	     389.31863
       6.87500	     415.53534
       6.95313	     367.03381
       7.03125	     375.79404
       7.10938	     365.77869
       7.18750	     308.09424
       7.26563	     404.30325
       7.34375	     333.67059
       7.42188	     313.52457
       7.50000	     416.61115
       7.57813	     344.13422
       7.65625	     442.32837
       7.73438	     296.92621
       7.81250	     389.38266
       7.89063	     389.04968
       7.96875	     260.60449
       8.04688	     384.59271
       8.12500	     309.54147
       8.20313	     316.29099
       8.28125	     364.36987
       8.35938	     401.16547
       8.43750	     437.07733
       8.51563	     265.65060
       8.59375	     342.72540
       8.67188	     496.69568
       8.75000	     345.90164
       8.82813	     389.69006
       8.90625	     274.80789
       8.98438	     378.61166
       9.06250	     329.93082
       9.14063	     312.50000
       9.21875	     290.31763
       9.29688	     264.70285
       9.37500	     311.87244
       9.45313	     246.11935
       9.53125	     336.80838
       9.60938	     316.76486
       9.68750	     302.86884
       9.76563	     399.93594
       9.84375	     356.64703
       9.92188	     264.38269
      10.00000	     307.73566
      10.07813	     373.77048
      10.15625	     284.90009
      10.23438	     292.08502
      10.31250	     270.79916
      10.39063	     287.74335
      10.46875	     322.93799
      10.54688	     275.05121
      10.62500	     352.74078
      10.70313	     430.22540
      10.78125	     387.39752
      10.85938	     332.87653
      10.93750	     332.14651
      11.01563	     323.01486
      11.09375	     384.83606
      11.17188	     361.60349
      11.25000	     272.06711
      11.32813	     429.54660
      11.40625	     280.46875
      11.48438	     478.25305
      11.56250	     317.64856
      11.64063	     375.25613
      11.71875	     372.57941
      11.79688	     347.42572
      11.87500	     342.02100
      11.95313	     396.05533
      12.03125	     381.36526
      12.10938	     360.96310
      12.18750	     419.96667
      12.26563	     276.62653
      12.34375	     316.22693
      12.42188	     288.15317
      12.50000	     354.55942
      12.57813	     383.41443
      12.65625	     340.18954
      12.73438	     312.82019
      12.81250	     477.63831
      12.89063	     305.78894
      12.96875	     426.75461
      13.04688	     300.62756
      13.12500	     323.96259
      13.20313	     337.21823
      13.28125	     297.52817
      13.35938	     336.94928
      13.43750	     343.32733
      13.51563	     299.35962
      13.59375	     367.00818
      13.67188	     343.58350
      13.75000	     210.39958
      13.82813	     354.53381
      13.90625	     358.47849
      13.98438	     299.43646
      14.06250	     350.61475
      14.14063	     259.31094
      14.21875	     308.15829
      14.29688	     416.66238
      14.37500	     436.33450
      14.45313	     361.50101
      14.53125	     232.90215
      14.60938	     376.43442
      14.68750	     468.25049
      14.76563	     302.19006
      14.84375	     403.63730
      14.92188	     385.42520
      15.00000	     307.35144
      15.07813	     253.68852
      15.15625	     247.61783
      15.23438	     394.30072
      15.31250	     498.45029
      15.39063	     373.38626
      15.46875	     302.86884
      15.54688	     345.05634
      15.62500	     356.08350
      15.70313	     367.35397
      15.78125	     383.31198
      15.85938	     358.86270
      15.93750	     407.19772
      16.01563	     308.17111
      16.09375	     383.74744
      16.17188	     425.52509
      16.25000	     290.82990
      16.32813	     296.17059
      16.40625	     307.21054
      16.48438	     249.29559
      16.56250	     393.36575
      16.64063	     352.54865
      16.71875	     372.79712
      16.79688	     351.78021
      16.87500	     308.04303
      16.95313	     277.92007
      17.03125	     315.97079
      17.10938	     411.41135
      17.18750	     312.69211
      17.26563	     288.07632
      17.34375	     313.55020
      17.42188	     520.86322
      17.50000	     262.84579
      17.57813	     285.47644
      17.65625	     388.11475
      17.73438	     426.29352
      17.81250	     236.83401
      17.89063	     451.95950
      17.96875	     245.82478
      18.04688	     333.22232
      18.12500	     297.78430
      18.20313	     374.18033
      18.28125	     311.27048
      18.35938	     333.93954
      18.43750	     369.78738
      18.51563	     422.22079
      18.59375	     393.90369
      18.67188	     269.90265
      18.75000	     452.97131
      18.82813	     329.09836
      18.90625	     401.11423
      18.98438	     312.50000
      19.06250	     248.42468
      19.14063	     386.32172
      19.21875	     335.89908
      19.29688	     270.67111
      19.37500	     284.98975
      19.45313	     290.93237
      19.53125	     268.85245
      19.60938	     317.87909
      19.68750	     297.43851
      19.76563	     242.63576
      19.84375	     332.05685
      19.92188	     314.88217

Monitor Diode	 236962.63

"Cumulant 1.Order"
FluctuationFreq. [1/ms]	 2.6454E-001
DiffCoefficient [µm²/s]	 7.4322E-001
Hydrodyn. Radius [nm]	 2.7966E+002

"Cumulant 2.Order"
FluctuationFreq. [1/ms]	 2.7222E-001
DiffCoefficient [µm²/s]	 7.6481E-001
Hydrodyn. Radius [nm]	 2.7177E+002
Expansion Parameter µ2	 6.2026E-003

"Cumulant 3.Order"
FluctuationFreq. [1/ms]	 2.7888E-001
DiffCoefficient [µm²/s]	 7.8351E-001
Hydrodyn. Radius [nm]	 2.6528E+002
Expansion Parameter µ2	 2.0166E-002
Expansion Parameter µ3	 8.9230E-003

"StandardDeviation"
  1.25000E-004	  1.50956E-002
  2.50000E-004	  1.50964E-002
  3.75000E-004	  1.50972E-002
  5.00000E-004	  1.50980E-002
  6.25000E-004	  1.50986E-002
  7.50000E-004	  1.50995E-002
  8.75000E-004	  1.51004E-002
  1.00000E-003	  1.51011E-002
  1.12500E-003	  1.50994E-002
  1.25000E-003	  1.50988E-002
  1.37500E-003	  1.50982E-002
  1.50000E-003	  1.50978E-002
  1.62500E-003	  1.50965E-002
  1.75000E-003	  1.50965E-002
  1.87500E-003	  1.50964E-002
  2.00000E-003	  1.49959E-002
  2.25000E-003	  1.49960E-002
  2.50000E-003	  1.49961E-002
  2.75000E-003	  1.49960E-002
  3.00000E-003	  1.49960E-002
  3.25000E-003	  1.49961E-002
  3.50000E-003	  1.49960E-002
  3.75000E-003	  1.49962E-002
  4.00000E-003	  1.49456E-002
  4.50000E-003	  1.49450E-002
  5.00000E-003	  1.49449E-002
  5.50000E-003	  1.49450E-002
  6.00000E-003	  1.49450E-002
  6.50000E-003	  1.49449E-002
  7.00000E-003	  1.49449E-002
  7.50000E-003	  1.49450E-002
  8.00000E-003	  1.49192E-002
  9.00000E-003	  1.49178E-002
  1.00000E-002	  1.49179E-002
  1.10000E-002	  1.49178E-002
  1.20000E-002	  1.49177E-002
  1.30000E-002	  1.49178E-002
  1.40000E-002	  1.49177E-002
  1.50000E-002	  1.49177E-002
  1.60000E-002	  1.49043E-002
  1.80000E-002	  1.49016E-002
  2.00000E-002	  1.49015E-002
  2.20000E-002	  1.49013E-002
  2.40000E-002	  1.49011E-002
  2.60000E-002	  1.49011E-002
  2.80000E-002	  1.49010E-002
  3.00000E-002	  1.49005E-002
  3.20000E-002	  1.48926E-002
  3.60000E-002	  1.48872E-002
  4.00000E-002	  1.48867E-002
  4.40000E-002	  1.48861E-002
  4.80000E-002	  1.48857E-002
  5.20000E-002	  1.48851E-002
  5.60000E-002	  1.48843E-002
  6.00000E-002	  1.48836E-002
  6.40000E-002	  1.48765E-002
  7.20000E-002	  1.48656E-002
  8.00000E-002	  1.48645E-002
  8.80000E-002	  1.48634E-002
  9.60000E-002	  1.48615E-002
  1.04000E-001	  1.48600E-002
  1.12000E-001	  1.48582E-002
  1.20000E-001	  1.48559E-002
  1.28000E-001	  1.48444E-002
  1.44000E-001	  1.48223E-002
  1.60000E-001	  1.48181E-002
  1.76000E-001	  1.48130E-002
  1.92000E-001	  1.48073E-002
  2.08000E-001	  1.48020E-002
  2.24000E-001	  1.47955E-002
  2.40000E-001	  1.47887E-002
  2.56000E-001	  1.47738E-002
  2.88000E-001	  1.47320E-002
  3.20000E-001	  1.47161E-002
  3.52000E-001	  1.46991E-002
  3.84000E-001	  1.46777E-002
  4.16000E-001	  1.46584E-002
  4.48000E-001	  1.46363E-002
  4.80000E-001	  1.46132E-002
  5.12000E-001	  1.45681E-002
  5.76000E-001	  1.44593E-002
  6.40000E-001	  1.44028E-002
  7.04000E-001	  1.43459E-002
  7.68000E-001	  1.42879E-002
  8.32000E-001	  1.42229E-002
  8.96000E-001	  1.41531E-002
  9.60000E-001	  1.40821E-002
  1.02400E+000	  1.40521E-002
  1.15200E+000	  1.38290E-002
  1.28000E+000	  1.36721E-002
  1.40800E+000	  1.35064E-002
  1.53600E+000	  1.33271E-002
  1.66400E+000	  1.31494E-002
  1.79200E+000	  1.29704E-002
  1.92000E+000	  1.27827E-002
  2.01600E+000	  1.25691E-002
  2.27200E+000	  1.21840E-002
  2.52800E+000	  1.18458E-002
  2.78400E+000	  1.15164E-002
  3.04000E+000	  1.11994E-002
  3.29600E+000	  1.08964E-002
  3.55200E+000	  1.06079E-002
  3.80800E+000	  1.03372E-002
  4.06400E+000	  9.99440E-003
  4.57600E+000	  9.51766E-003
  5.08800E+000	  9.12964E-003
  5.60000E+000	  7.68581E-003
  6.11200E+000	  7.68581E-003
  6.62400E+000	  7.68581E-003
  7.13600E+000	  7.68581E-003
  7.64800E+000	  7.68581E-003
  8.16000E+000	  7.68725E-003
  9.18400E+000	  7.68725E-003
  1.02080E+001	  7.68725E-003
  1.12320E+001	  7.68725E-003
  1.22560E+001	  7.68725E-003
  1.32800E+001	  7.68725E-003
  1.43040E+001	  7.68725E-003
  1.53280E+001	  7.68725E-003
  1.63520E+001	  7.26588E-003
  1.84000E+001	  7.26588E-003
  2.04480E+001	  7.26588E-003
  2.24960E+001	  7.26588E-003
  2.45440E+001	  7.26588E-003
  2.65920E+001	  7.26588E-003
  2.86400E+001	  7.26588E-003
  3.06880E+001	  7.26588E-003
  3.27360E+001	  6.55088E-003
  3.68320E+001	  6.55088E-003
  4.09280E+001	  6.55088E-003
  4.50240E+001	  6.55088E-003
  4.91200E+001	  6.55088E-003
  5.32160E+001	  6.55088E-003
  5.73120E+001	  6.55088E-003
  6.14080E+001	  6.55088E-003
  6.55040E+001	  5.89748E-003
  7.36960E+001	  5.89748E-003
  8.18880E+001	  5.89748E-003
  9.00800E+001	  5.89748E-003
  9.82720E+001	  5.89748E-003
  1.06464E+002	  5.89748E-003
  1.14656E+002	  5.89748E-003
  1.22848E+002	  5.89748E-003
  1.31040E+002	  4.72146E-003
  1.47424E+002	  4.72146E-003
  1.63808E+002	  4.72146E-003
  1.80192E+002	  4.72146E-003
  1.96576E+002	  4.72146E-003
  2.12960E+002	  4.72146E-003
  2.29344E+002	  4.72146E-003
  2.45728E+002	  4.72146E-003
  2.62112E+002	  3.55283E-003
  2.94880E+002	  3.55283E-003
  3.27648E+002	  3.55283E-003
  3.60416E+002	  3.55283E-003
  3.93184E+002	  3.55283E-003
  4.25952E+002	  3.55283E-003
  4.58720E+002	  3.55283E-003
  4.91488E+002	  3.55283E-003
