ALV-6000/E-WIN Data
Date :	"11/13/2025"
Time :	"12:22:06 PM"
Samplename : 	"NaCl - 465nm"
SampMemo(0) : 	""
SampMemo(1) : 	""
SampMemo(2) : 	""
SampMemo(3) : 	""
SampMemo(4) : 	""
SampMemo(5) : 	""
SampMemo(6) : 	""
SampMemo(7) : 	""
SampMemo(8) : 	""
SampMemo(9) : 	""
Temperature [K] :	     292.17503
Viscosity [cp]  :	       1.02604
Refractive Index:	       1.33200
Wavelength [nm] :	     632.80000
Angle [°]       :	     113.99900
Duration [s]    :	        20
Runs            :	         1
Mode            :	"SINGLE AUTO CH0 "
MeanCR0 [kHz]   :	     414.27594
MeanCR1 [kHz]   :	       0.00000

"Correlation"
  1.25000E-004	  1.88662E+000
  2.50000E-004	  2.46082E+000
  3.75000E-004	  2.45013E+000
  5.00000E-004	  2.44909E+000
  6.25000E-004	  2.44541E+000
  7.50000E-004	  2.44797E+000
  8.75000E-004	  2.43960E+000
  1.00000E-003	  2.43896E+000
  1.12500E-003	  2.43435E+000
  1.25000E-003	  2.44166E+000
  1.37500E-003	  2.43642E+000
  1.50000E-003	  2.43357E+000
  1.62500E-003	  2.43355E+000
  1.75000E-003	  2.43793E+000
  1.87500E-003	  2.43560E+000
  2.00000E-003	  2.43777E+000
  2.25000E-003	  2.43586E+000
  2.50000E-003	  2.43608E+000
  2.75000E-003	  2.43125E+000
  3.00000E-003	  2.42953E+000
  3.25000E-003	  2.43259E+000
  3.50000E-003	  2.42982E+000
  3.75000E-003	  2.43091E+000
  4.00000E-003	  2.42957E+000
  4.50000E-003	  2.43035E+000
  5.00000E-003	  2.42840E+000
  5.50000E-003	  2.42817E+000
  6.00000E-003	  2.42492E+000
  6.50000E-003	  2.42398E+000
  7.00000E-003	  2.42742E+000
  7.50000E-003	  2.42579E+000
  8.00000E-003	  2.42357E+000
  9.00000E-003	  2.42051E+000
  1.00000E-002	  2.42180E+000
  1.10000E-002	  2.41863E+000
  1.20000E-002	  2.41607E+000
  1.30000E-002	  2.41451E+000
  1.40000E-002	  2.41238E+000
  1.50000E-002	  2.40861E+000
  1.60000E-002	  2.40782E+000
  1.80000E-002	  2.40431E+000
  2.00000E-002	  2.40230E+000
  2.20000E-002	  2.39961E+000
  2.40000E-002	  2.39444E+000
  2.60000E-002	  2.39117E+000
  2.80000E-002	  2.38853E+000
  3.00000E-002	  2.38497E+000
  3.20000E-002	  2.38040E+000
  3.60000E-002	  2.37357E+000
  4.00000E-002	  2.36628E+000
  4.40000E-002	  2.35929E+000
  4.80000E-002	  2.35296E+000
  5.20000E-002	  2.34510E+000
  5.60000E-002	  2.33802E+000
  6.00000E-002	  2.33060E+000
  6.40000E-002	  2.32349E+000
  7.20000E-002	  2.30936E+000
  8.00000E-002	  2.29571E+000
  8.80000E-002	  2.28204E+000
  9.60000E-002	  2.26830E+000
  1.04000E-001	  2.25439E+000
  1.12000E-001	  2.24017E+000
  1.20000E-001	  2.22773E+000
  1.28000E-001	  2.21479E+000
  1.44000E-001	  2.18818E+000
  1.60000E-001	  2.16205E+000
  1.76000E-001	  2.13696E+000
  1.92000E-001	  2.11118E+000
  2.08000E-001	  2.08533E+000
  2.24000E-001	  2.06109E+000
  2.40000E-001	  2.03599E+000
  2.56000E-001	  2.01151E+000
  2.88000E-001	  1.96352E+000
  3.20000E-001	  1.91684E+000
  3.52000E-001	  1.87200E+000
  3.84000E-001	  1.82792E+000
  4.16000E-001	  1.78476E+000
  4.48000E-001	  1.74277E+000
  4.80000E-001	  1.70191E+000
  5.12000E-001	  1.66157E+000
  5.76000E-001	  1.58414E+000
  6.40000E-001	  1.51024E+000
  7.04000E-001	  1.43999E+000
  7.68000E-001	  1.37250E+000
  8.32000E-001	  1.30823E+000
  8.96000E-001	  1.24707E+000
  9.60000E-001	  1.18914E+000
  1.02400E+000	  1.13510E+000
  1.15200E+000	  1.03306E+000
  1.28000E+000	  9.40470E-001
  1.40800E+000	  8.56064E-001
  1.53600E+000	  7.79483E-001
  1.66400E+000	  7.10240E-001
  1.79200E+000	  6.47874E-001
  1.92000E+000	  5.90584E-001
  2.01600E+000	  5.54750E-001
  2.27200E+000	  4.59040E-001
  2.52800E+000	  3.76861E-001
  2.78400E+000	  3.09103E-001
  3.04000E+000	  2.53639E-001
  3.29600E+000	  2.06350E-001
  3.55200E+000	  1.68287E-001
  3.80800E+000	  1.38615E-001
  4.06400E+000	  1.17727E-001
  4.57600E+000	  8.60894E-002
  5.08800E+000	  6.36488E-002
  5.60000E+000	  5.13053E-002
  6.11200E+000	  3.93941E-002
  6.62400E+000	  2.60311E-002
  7.13600E+000	  1.81345E-002
  7.64800E+000	  1.58711E-002
  8.16000E+000	  1.57971E-002
  9.18400E+000	  1.69439E-002
  1.02080E+001	  2.03288E-002
  1.12320E+001	  2.24237E-002
  1.22560E+001	  2.78912E-002
  1.32800E+001	  2.77148E-002
  1.43040E+001	  2.45334E-002
  1.53280E+001	  1.82256E-002
  1.63520E+001	  1.22630E-002
  1.84000E+001	  7.51472E-003
  2.04480E+001	  1.10106E-002
  2.24960E+001	 -7.97565E-003
  2.45440E+001	 -1.74009E-002
  2.65920E+001	 -1.42405E-002
  2.86400E+001	 -4.42057E-003
  3.06880E+001	  3.58464E-004
  3.27360E+001	 -5.24210E-004
  3.68320E+001	 -8.81589E-003
  4.09280E+001	 -8.80237E-004
  4.50240E+001	  1.32656E-002
  4.91200E+001	  7.35421E-003
  5.32160E+001	 -6.68132E-003
  5.73120E+001	 -9.85625E-003
  6.14080E+001	 -3.45288E-003
  6.55040E+001	  7.86291E-003
  7.36960E+001	 -1.46684E-002
  8.18880E+001	  1.46866E-002
  9.00800E+001	 -5.83617E-003
  9.82720E+001	 -1.85136E-002
  1.06464E+002	 -1.18336E-002
  1.14656E+002	 -3.84270E-003
  1.22848E+002	 -1.25603E-002
  1.31040E+002	 -1.33960E-003
  1.47424E+002	 -4.60130E-003
  1.63808E+002	 -3.85491E-003
  1.80192E+002	  1.26714E-002
  1.96576E+002	  4.88976E-003
  2.12960E+002	 -3.65947E-003
  2.29344E+002	 -1.12516E-002
  2.45728E+002	  1.03241E-002
  2.62112E+002	  4.69485E-003
  2.94880E+002	  7.69678E-003
  3.27648E+002	 -7.06982E-003
  3.60416E+002	  5.14664E-003
  3.93184E+002	 -4.77816E-003
  4.25952E+002	  4.11431E-004
  4.58720E+002	  3.37898E-005
  4.91488E+002	 -7.75093E-007
  5.24256E+002	  6.56535E-003
  5.89792E+002	  5.21084E-004
  6.55328E+002	  4.13938E-004
  7.20864E+002	  7.49261E-004
  7.86400E+002	 -1.62882E-003
  8.51936E+002	  1.97019E-003
  9.17472E+002	 -7.28704E-004
  9.83008E+002	 -5.20163E-003
  1.04854E+003	  1.98286E-003
  1.17962E+003	  3.97219E-003
  1.31069E+003	  5.11081E-003
  1.44176E+003	 -1.32493E-003
  1.57283E+003	  2.58188E-003
  1.70390E+003	  4.28266E-003
  1.83498E+003	 -4.49254E-004
  1.96605E+003	  2.29417E-003
  2.09712E+003	 -2.07317E-003
  2.35926E+003	  2.69237E-004
  2.62141E+003	 -9.03898E-004
  2.88355E+003	  2.53011E-003
  3.14570E+003	 -5.94072E-003
  3.40784E+003	  1.48303E-003
  3.66998E+003	 -6.63415E-003
  3.93213E+003	  1.57970E-004
  4.19427E+003	 -1.04230E-003
  4.71856E+003	 -2.11231E-003
  5.24285E+003	 -1.92623E-004
  5.76714E+003	 -4.35625E-003
  6.29142E+003	 -4.67583E-005
  6.81571E+003	 -3.20839E-003
  7.34000E+003	 -1.31077E-003
  7.86429E+003	  1.90760E-003

"Count Rate"
       0.07813	     396.29865
       0.15625	     457.26178
       0.23438	     555.62244
       0.31250	     438.06351
       0.39063	     435.48923
       0.46875	     583.61932
       0.54688	     388.37088
       0.62500	     316.62396
       0.70313	     384.95132
       0.78125	     391.91855
       0.85938	     362.62805
       0.93750	     420.35092
       1.01563	     359.56711
       1.09375	     357.62039
       1.17188	     332.72284
       1.25000	     531.45490
       1.32813	     518.13525
       1.40625	     400.03842
       1.48438	     528.89343
       1.56250	     444.63370
       1.64063	     380.53278
       1.71875	     338.28125
       1.79688	     439.72849
       1.87500	     401.63934
       1.95313	     458.18390
       2.03125	     395.32529
       2.10938	     533.28638
       2.18750	     506.01944
       2.26563	     388.06351
       2.34375	     350.21771
       2.42188	     352.66391
       2.50000	     319.72336
       2.57813	     518.46820
       2.65625	     394.14700
       2.73438	     356.16034
       2.81250	     420.46619
       2.89063	     330.30225
       2.96875	     446.34988
       3.04688	     418.67316
       3.12500	     428.36832
       3.20313	     360.24588
       3.28125	     416.15009
       3.35938	     467.07224
       3.43750	     376.62653
       3.51563	     291.49588
       3.59375	     325.15369
       3.67188	     432.33862
       3.75000	     436.25766
       3.82813	     402.15164
       3.90625	     466.88010
       3.98438	     463.79352
       4.06250	     382.30020
       4.14063	     362.37192
       4.21875	     520.35089
       4.29688	     408.82428
       4.37500	     350.52509
       4.45313	     649.33398
       4.53125	     446.63165
       4.60938	     408.09424
       4.68750	     367.26434
       4.76563	     343.40421
       4.84375	     396.81094
       4.92188	     365.63779
       5.00000	     378.18903
       5.07813	     343.86526
       5.15625	     436.33450
       5.23438	     450.55069
       5.31250	     428.56042
       5.39063	     377.86884
       5.46875	     400.92212
       5.54688	     421.10654
       5.62500	     344.31351
       5.70313	     521.52917
       5.78125	     573.86011
       5.85938	     440.26639
       5.93750	     515.12549
       6.01563	     366.84171
       6.09375	     606.26282
       6.17188	     381.76230
       6.25000	     316.93134
       6.32813	     551.60089
       6.40625	     409.32376
       6.48438	     410.54047
       6.56250	     283.31198
       6.64063	     502.38217
       6.71875	     406.36526
       6.79688	     359.31094
       6.87500	     401.13983
       6.95313	     450.44824
       7.03125	     467.17468
       7.10938	     419.72336
       7.18750	     405.54559
       7.26563	     380.91699
       7.34375	     476.19107
       7.42188	     514.39545
       7.50000	     363.56299
       7.57813	     383.00461
       7.65625	     472.41290
       7.73438	     376.71619
       7.81250	     445.96567
       7.89063	     435.42520
       7.96875	     339.33145
       8.04688	     405.17416
       8.12500	     353.44516
       8.20313	     549.70544
       8.28125	     371.05533
       8.35938	     434.15726
       8.43750	     484.43903
       8.51563	     481.73666
       8.59375	     294.77457
       8.67188	     279.03430
       8.75000	     371.45233
       8.82813	     501.86987
       8.90625	     303.77817
       8.98438	     449.35962
       9.06250	     517.54608
       9.14063	     411.52664
       9.21875	     323.82172
       9.29688	     528.89343
       9.37500	     450.96054
       9.45313	     460.01535
       9.53125	     488.15317
       9.60938	     343.96771
       9.68750	     415.49692
       9.76563	     373.88574
       9.84375	     393.72437
       9.92188	     540.22797
      10.00000	     390.95798
      10.07813	     447.92520
      10.15625	     399.87192
      10.23438	     410.02817
      10.31250	     331.64703
      10.39063	     549.01379
      10.46875	     408.69620
      10.54688	     431.58298
      10.62500	     388.16599
      10.70313	     435.48923
      10.78125	     294.15982
      10.85938	     447.23358
      10.93750	     382.71002
      11.01563	     385.65573
      11.09375	     440.45850
      11.17188	     407.78687
      11.25000	     530.41748
      11.32813	     420.29968
      11.40625	     428.12500
      11.48438	     329.22641
      11.56250	     428.94467
      11.64063	     629.31604
      11.71875	     368.71158
      11.79688	     402.44620
      11.87500	     345.18442
      11.95313	     457.24896
      12.03125	     349.24435
      12.10938	     375.75562
      12.18750	     350.60193
      12.26563	     372.83554
      12.34375	     381.91599
      12.42188	     347.05429
      12.50000	     341.27817
      12.57813	     379.20081
      12.65625	     387.90982
      12.73438	     355.59680
      12.81250	     489.57477
      12.89063	     443.49384
      12.96875	     443.01996
      13.04688	     436.79559
      13.12500	     442.67416
      13.20313	     412.12857
      13.28125	     457.50510
      13.35938	     401.97232
      13.43750	     392.07224
      13.51563	     392.26434
      13.59375	     381.63422
      13.67188	     499.85910
      13.75000	     367.93033
      13.82813	     366.45746
      13.90625	     426.20389
      13.98438	     571.55481
      14.06250	     333.44006
      14.14063	     391.85449
      14.21875	     418.07120
      14.29688	     429.75153
      14.37500	     514.83093
      14.45313	     510.96310
      14.53125	     496.32428
      14.60938	     557.03125
      14.68750	     397.66904
      14.76563	     337.82016
      14.84375	     419.22385
      14.92188	     430.30225
      15.00000	     428.12500
      15.07813	     349.56454
      15.15625	     289.53638
      15.23438	     523.23254
      15.31250	     452.11319
      15.39063	     412.75613
      15.46875	     466.70081
      15.54688	     456.58298
      15.62500	     420.65829
      15.70313	     328.24026
      15.78125	     428.70132
      15.85938	     308.29916
      15.93750	     489.03687
      16.01563	     457.31299
      16.09375	     412.88422
      16.17188	     352.94568
      16.25000	     403.68851
      16.32813	     331.32684
      16.40625	     329.09836
      16.48438	     533.11987
      16.56250	     382.64600
      16.64063	     370.37653
      16.71875	     390.12549
      16.79688	     290.15112
      16.87500	     399.47488
      16.95313	     391.30377
      17.03125	     322.28482
      17.10938	     323.93698
      17.18750	     301.08862
      17.26563	     640.21515
      17.34375	     387.84579
      17.42188	     461.28329
      17.50000	     303.75256
      17.57813	     277.02356
      17.65625	     429.49539
      17.73438	     432.59476
      17.81250	     368.03278
      17.89063	     469.65930
      17.96875	     452.06198
      18.04688	     338.02509
      18.12500	     438.53738
      18.20313	     301.94672
      18.28125	     338.97284
      18.35938	     363.98566
      18.43750	     441.70081
      18.51563	     489.53635
      18.59375	     486.57785
      18.67188	     342.30276
      18.75000	     327.48462
      18.82813	     378.41956
      18.90625	     391.98257
      18.98438	     438.70389
      19.06250	     299.47488
      19.14063	     458.60654
      19.21875	     378.41956
      19.29688	     403.04816
      19.37500	     446.81094
      19.45313	     371.79816
      19.53125	     446.78534
      19.60938	     370.56863
      19.68750	     290.91956
      19.76563	     423.66803
      19.84375	     593.87805
      19.92188	     406.22437

Monitor Diode	 231715.78

"Cumulant 1.Order"
FluctuationFreq. [1/ms]	 3.6214E-001
DiffCoefficient [µm²/s]	 7.3588E-001
Hydrodyn. Radius [nm]	 2.8330E+002

"Cumulant 2.Order"
FluctuationFreq. [1/ms]	 3.7289E-001
DiffCoefficient [µm²/s]	 7.5771E-001
Hydrodyn. Radius [nm]	 2.7514E+002
Expansion Parameter µ2	 1.2023E-002

"Cumulant 3.Order"
FluctuationFreq. [1/ms]	 3.7766E-001
DiffCoefficient [µm²/s]	 7.6740E-001
Hydrodyn. Radius [nm]	 2.7166E+002
Expansion Parameter µ2	 2.5476E-002
Expansion Parameter µ3	 1.1676E-002

"StandardDeviation"
  1.25000E-004	  1.32654E-002
  2.50000E-004	  1.32663E-002
  3.75000E-004	  1.32672E-002
  5.00000E-004	  1.32681E-002
  6.25000E-004	  1.32690E-002
  7.50000E-004	  1.32700E-002
  8.75000E-004	  1.32709E-002
  1.00000E-003	  1.32718E-002
  1.12500E-003	  1.32694E-002
  1.25000E-003	  1.32693E-002
  1.37500E-003	  1.32678E-002
  1.50000E-003	  1.32665E-002
  1.62500E-003	  1.32659E-002
  1.75000E-003	  1.32657E-002
  1.87500E-003	  1.32650E-002
  2.00000E-003	  1.31849E-002
  2.25000E-003	  1.31855E-002
  2.50000E-003	  1.31856E-002
  2.75000E-003	  1.31855E-002
  3.00000E-003	  1.31852E-002
  3.25000E-003	  1.31851E-002
  3.50000E-003	  1.31846E-002
  3.75000E-003	  1.31851E-002
  4.00000E-003	  1.31445E-002
  4.50000E-003	  1.31437E-002
  5.00000E-003	  1.31434E-002
  5.50000E-003	  1.31434E-002
  6.00000E-003	  1.31430E-002
  6.50000E-003	  1.31430E-002
  7.00000E-003	  1.31432E-002
  7.50000E-003	  1.31427E-002
  8.00000E-003	  1.31220E-002
  9.00000E-003	  1.31200E-002
  1.00000E-002	  1.31202E-002
  1.10000E-002	  1.31198E-002
  1.20000E-002	  1.31194E-002
  1.30000E-002	  1.31192E-002
  1.40000E-002	  1.31189E-002
  1.50000E-002	  1.31184E-002
  1.60000E-002	  1.31074E-002
  1.80000E-002	  1.31038E-002
  2.00000E-002	  1.31032E-002
  2.20000E-002	  1.31026E-002
  2.40000E-002	  1.31019E-002
  2.60000E-002	  1.31012E-002
  2.80000E-002	  1.31005E-002
  3.00000E-002	  1.30998E-002
  3.20000E-002	  1.30922E-002
  3.60000E-002	  1.30850E-002
  4.00000E-002	  1.30836E-002
  4.40000E-002	  1.30822E-002
  4.80000E-002	  1.30805E-002
  5.20000E-002	  1.30790E-002
  5.60000E-002	  1.30772E-002
  6.00000E-002	  1.30754E-002
  6.40000E-002	  1.30629E-002
  7.20000E-002	  1.30487E-002
  8.00000E-002	  1.30458E-002
  8.80000E-002	  1.30427E-002
  9.60000E-002	  1.30391E-002
  1.04000E-001	  1.30356E-002
  1.12000E-001	  1.30317E-002
  1.20000E-001	  1.30276E-002
  1.28000E-001	  1.30197E-002
  1.44000E-001	  1.29910E-002
  1.60000E-001	  1.29821E-002
  1.76000E-001	  1.29726E-002
  1.92000E-001	  1.29579E-002
  2.08000E-001	  1.29484E-002
  2.24000E-001	  1.29378E-002
  2.40000E-001	  1.29267E-002
  2.56000E-001	  1.29120E-002
  2.88000E-001	  1.28555E-002
  3.20000E-001	  1.28244E-002
  3.52000E-001	  1.27979E-002
  3.84000E-001	  1.27700E-002
  4.16000E-001	  1.27400E-002
  4.48000E-001	  1.27028E-002
  4.80000E-001	  1.26664E-002
  5.12000E-001	  1.26164E-002
  5.76000E-001	  1.24578E-002
  6.40000E-001	  1.23818E-002
  7.04000E-001	  1.22972E-002
  7.68000E-001	  1.22146E-002
  8.32000E-001	  1.21202E-002
  8.96000E-001	  1.20274E-002
  9.60000E-001	  1.19323E-002
  1.02400E+000	  1.18795E-002
  1.15200E+000	  1.16530E-002
  1.28000E+000	  1.14590E-002
  1.40800E+000	  1.12606E-002
  1.53600E+000	  1.10610E-002
  1.66400E+000	  1.08443E-002
  1.79200E+000	  1.06532E-002
  1.92000E+000	  1.04627E-002
  2.01600E+000	  1.02833E-002
  2.27200E+000	  9.93985E-003
  2.52800E+000	  9.63887E-003
  2.78400E+000	  9.36189E-003
  3.04000E+000	  9.12743E-003
  3.29600E+000	  8.91416E-003
  3.55200E+000	  8.71796E-003
  3.80800E+000	  8.53630E-003
  4.06400E+000	  8.27052E-003
  4.57600E+000	  7.99109E-003
  5.08800E+000	  7.76205E-003
  5.60000E+000	  7.64776E-003
  6.11200E+000	  7.56145E-003
  6.62400E+000	  7.49281E-003
  7.13600E+000	  7.40464E-003
  7.64800E+000	  7.33596E-003
  8.16000E+000	  6.60970E-003
  9.18400E+000	  6.60970E-003
  1.02080E+001	  6.60970E-003
  1.12320E+001	  6.60970E-003
  1.22560E+001	  6.60970E-003
  1.32800E+001	  6.60970E-003
  1.43040E+001	  6.60970E-003
  1.53280E+001	  6.60970E-003
  1.63520E+001	  6.16376E-003
  1.84000E+001	  6.16376E-003
  2.04480E+001	  6.16376E-003
  2.24960E+001	  6.16376E-003
  2.45440E+001	  6.16376E-003
  2.65920E+001	  6.16376E-003
  2.86400E+001	  6.16376E-003
  3.06880E+001	  6.16376E-003
  3.27360E+001	  5.47350E-003
  3.68320E+001	  5.47350E-003
  4.09280E+001	  5.47350E-003
  4.50240E+001	  5.47350E-003
  4.91200E+001	  5.47350E-003
  5.32160E+001	  5.47350E-003
  5.73120E+001	  5.47350E-003
  6.14080E+001	  5.47350E-003
  6.55040E+001	  4.72653E-003
  7.36960E+001	  4.72653E-003
  8.18880E+001	  4.72653E-003
  9.00800E+001	  4.72653E-003
  9.82720E+001	  4.72653E-003
  1.06464E+002	  4.72653E-003
  1.14656E+002	  4.72653E-003
  1.22848E+002	  4.72653E-003
  1.31040E+002	  3.82921E-003
  1.47424E+002	  3.82921E-003
  1.63808E+002	  3.82921E-003
  1.80192E+002	  3.82921E-003
  1.96576E+002	  3.82921E-003
  2.12960E+002	  3.82921E-003
  2.29344E+002	  3.82921E-003
  2.45728E+002	  3.82921E-003
  2.62112E+002	  2.91457E-003
  2.94880E+002	  2.91457E-003
  3.27648E+002	  2.91457E-003
  3.60416E+002	  2.91457E-003
  3.93184E+002	  2.91457E-003
  4.25952E+002	  2.91457E-003
  4.58720E+002	  2.91457E-003
  4.91488E+002	  2.91457E-003
