ALV-6000/E-WIN Data
Date :	"11/13/2025"
Time :	"1:14:18 PM"
Samplename : 	"NaCl - 465nm"
SampMemo(0) : 	""
SampMemo(1) : 	""
SampMemo(2) : 	""
SampMemo(3) : 	""
SampMemo(4) : 	""
SampMemo(5) : 	""
SampMemo(6) : 	""
SampMemo(7) : 	""
SampMemo(8) : 	""
SampMemo(9) : 	""
Temperature [K] :	     292.32570
Viscosity [cp]  :	       1.02223
Refractive Index:	       1.33200
Wavelength [nm] :	     632.80000
Angle [°]       :	     144.99900
Duration [s]    :	        20
Runs            :	         1
Mode            :	"SINGLE AUTO CH0 "
MeanCR0 [kHz]   :	     244.95953
MeanCR1 [kHz]   :	       0.00000

"Correlation"
  1.25000E-004	  5.96347E-001
  2.50000E-004	  7.88832E-001
  3.75000E-004	  7.87774E-001
  5.00000E-004	  7.85727E-001
  6.25000E-004	  7.77870E-001
  7.50000E-004	  7.88390E-001
  8.75000E-004	  7.77737E-001
  1.00000E-003	  7.78105E-001
  1.12500E-003	  7.82548E-001
  1.25000E-003	  7.82702E-001
  1.37500E-003	  7.82796E-001
  1.50000E-003	  7.78239E-001
  1.62500E-003	  7.74846E-001
  1.75000E-003	  7.76532E-001
  1.87500E-003	  7.78975E-001
  2.00000E-003	  7.83435E-001
  2.25000E-003	  7.76947E-001
  2.50000E-003	  7.77158E-001
  2.75000E-003	  7.72216E-001
  3.00000E-003	  7.75829E-001
  3.25000E-003	  7.79038E-001
  3.50000E-003	  7.78108E-001
  3.75000E-003	  7.78998E-001
  4.00000E-003	  7.76112E-001
  4.50000E-003	  7.75314E-001
  5.00000E-003	  7.74984E-001
  5.50000E-003	  7.74039E-001
  6.00000E-003	  7.75523E-001
  6.50000E-003	  7.76940E-001
  7.00000E-003	  7.76645E-001
  7.50000E-003	  7.74885E-001
  8.00000E-003	  7.73032E-001
  9.00000E-003	  7.71045E-001
  1.00000E-002	  7.70846E-001
  1.10000E-002	  7.73690E-001
  1.20000E-002	  7.72437E-001
  1.30000E-002	  7.71193E-001
  1.40000E-002	  7.68513E-001
  1.50000E-002	  7.70517E-001
  1.60000E-002	  7.68294E-001
  1.80000E-002	  7.68071E-001
  2.00000E-002	  7.67261E-001
  2.20000E-002	  7.67474E-001
  2.40000E-002	  7.65443E-001
  2.60000E-002	  7.64724E-001
  2.80000E-002	  7.63819E-001
  3.00000E-002	  7.62407E-001
  3.20000E-002	  7.62392E-001
  3.60000E-002	  7.58772E-001
  4.00000E-002	  7.57772E-001
  4.40000E-002	  7.55374E-001
  4.80000E-002	  7.52044E-001
  5.20000E-002	  7.51245E-001
  5.60000E-002	  7.48196E-001
  6.00000E-002	  7.46594E-001
  6.40000E-002	  7.44479E-001
  7.20000E-002	  7.40683E-001
  8.00000E-002	  7.36217E-001
  8.80000E-002	  7.33426E-001
  9.60000E-002	  7.29177E-001
  1.04000E-001	  7.23713E-001
  1.12000E-001	  7.20619E-001
  1.20000E-001	  7.17057E-001
  1.28000E-001	  7.13310E-001
  1.44000E-001	  7.05961E-001
  1.60000E-001	  6.98244E-001
  1.76000E-001	  6.90624E-001
  1.92000E-001	  6.82667E-001
  2.08000E-001	  6.75850E-001
  2.24000E-001	  6.68471E-001
  2.40000E-001	  6.61119E-001
  2.56000E-001	  6.54114E-001
  2.88000E-001	  6.40557E-001
  3.20000E-001	  6.26800E-001
  3.52000E-001	  6.13658E-001
  3.84000E-001	  6.01558E-001
  4.16000E-001	  5.89128E-001
  4.48000E-001	  5.77338E-001
  4.80000E-001	  5.65336E-001
  5.12000E-001	  5.53677E-001
  5.76000E-001	  5.31136E-001
  6.40000E-001	  5.09570E-001
  7.04000E-001	  4.89152E-001
  7.68000E-001	  4.68957E-001
  8.32000E-001	  4.50474E-001
  8.96000E-001	  4.32481E-001
  9.60000E-001	  4.15916E-001
  1.02400E+000	  4.00033E-001
  1.15200E+000	  3.70266E-001
  1.28000E+000	  3.43984E-001
  1.40800E+000	  3.19996E-001
  1.53600E+000	  2.98736E-001
  1.66400E+000	  2.79961E-001
  1.79200E+000	  2.62658E-001
  1.92000E+000	  2.47000E-001
  2.01600E+000	  2.36790E-001
  2.27200E+000	  2.12558E-001
  2.52800E+000	  1.91605E-001
  2.78400E+000	  1.73023E-001
  3.04000E+000	  1.56040E-001
  3.29600E+000	  1.40975E-001
  3.55200E+000	  1.27137E-001
  3.80800E+000	  1.14522E-001
  4.06400E+000	  1.03572E-001
  4.57600E+000	  8.58037E-002
  5.08800E+000	  7.28900E-002
  5.60000E+000	  6.49754E-002
  6.11200E+000	  5.92551E-002
  6.62400E+000	  5.33423E-002
  7.13600E+000	  4.96057E-002
  7.64800E+000	  4.57742E-002
  8.16000E+000	  4.19298E-002
  9.18400E+000	  3.63016E-002
  1.02080E+001	  3.09310E-002
  1.12320E+001	  2.98585E-002
  1.22560E+001	  3.32787E-002
  1.32800E+001	  3.23288E-002
  1.43040E+001	  2.89898E-002
  1.53280E+001	  2.47819E-002
  1.63520E+001	  1.88630E-002
  1.84000E+001	  1.45582E-002
  2.04480E+001	  1.60028E-002
  2.24960E+001	  1.94632E-002
  2.45440E+001	  1.42824E-002
  2.65920E+001	  1.73149E-002
  2.86400E+001	  1.70368E-002
  3.06880E+001	  5.67455E-003
  3.27360E+001	  4.93078E-003
  3.68320E+001	 -4.11208E-004
  4.09280E+001	  2.41279E-003
  4.50240E+001	  5.71217E-003
  4.91200E+001	  3.86528E-003
  5.32160E+001	  5.75157E-003
  5.73120E+001	  3.43487E-003
  6.14080E+001	 -1.82236E-003
  6.55040E+001	 -8.14098E-003
  7.36960E+001	 -3.15780E-003
  8.18880E+001	 -2.11464E-003
  9.00800E+001	 -1.62772E-003
  9.82720E+001	  1.99441E-003
  1.06464E+002	  2.37038E-003
  1.14656E+002	 -4.19307E-004
  1.22848E+002	 -4.27803E-003
  1.31040E+002	  1.38525E-003
  1.47424E+002	 -5.46159E-003
  1.63808E+002	 -6.41547E-003
  1.80192E+002	 -1.82766E-003
  1.96576E+002	 -2.80596E-003
  2.12960E+002	  1.06697E-004
  2.29344E+002	  6.98926E-004
  2.45728E+002	 -7.25355E-003
  2.62112E+002	 -1.45534E-003
  2.94880E+002	  4.52037E-003
  3.27648E+002	  5.14516E-003
  3.60416E+002	 -3.85241E-003
  3.93184E+002	 -4.78627E-003
  4.25952E+002	  4.60793E-003
  4.58720E+002	 -5.53235E-003
  4.91488E+002	  1.25874E-005
  5.24256E+002	  1.13572E-003
  5.89792E+002	  4.33372E-003
  6.55328E+002	  4.76439E-004
  7.20864E+002	 -1.20643E-003
  7.86400E+002	 -2.07121E-003
  8.51936E+002	  2.02217E-004
  9.17472E+002	 -2.89256E-003
  9.83008E+002	 -4.66175E-004
  1.04854E+003	  1.39578E-003
  1.17962E+003	 -5.72581E-003
  1.31069E+003	 -7.25362E-004
  1.44176E+003	  1.55329E-003
  1.57283E+003	  4.65139E-003
  1.70390E+003	 -5.39627E-003
  1.83498E+003	  2.47528E-003
  1.96605E+003	 -3.43676E-003
  2.09712E+003	  1.36717E-003
  2.35926E+003	 -1.42437E-003
  2.62141E+003	 -2.01657E-004
  2.88355E+003	  3.47756E-005
  3.14570E+003	  2.01405E-003
  3.40784E+003	 -2.45386E-005
  3.66998E+003	 -7.36861E-004
  3.93213E+003	  1.00956E-003
  4.19427E+003	 -9.50935E-004
  4.71856E+003	 -7.00363E-004
  5.24285E+003	  4.66409E-004
  5.76714E+003	  1.12375E-003
  6.29142E+003	 -6.80518E-004
  6.81571E+003	  1.82405E-003
  7.34000E+003	 -8.95387E-004
  7.86429E+003	 -1.86531E-003

"Count Rate"
       0.07813	     239.75409
       0.15625	     269.42877
       0.23438	     262.32068
       0.31250	     220.72234
       0.39063	     245.59425
       0.46875	     215.16393
       0.54688	     213.67827
       0.62500	     287.92264
       0.70313	     292.85349
       0.78125	     182.78688
       0.85938	     220.94005
       0.93750	     178.11218
       1.01563	     249.73103
       1.09375	     203.11218
       1.17188	     166.06044
       1.25000	     196.26024
       1.32813	     233.82428
       1.40625	     239.58760
       1.48438	     179.23924
       1.56250	     257.15930
       1.64063	     239.79251
       1.71875	     220.10757
       1.79688	     267.52048
       1.87500	     397.46414
       1.95313	     255.43031
       2.03125	     247.88678
       2.10938	     250.15369
       2.18750	     245.17162
       2.26563	     220.37653
       2.34375	     210.39958
       2.42188	     286.29611
       2.50000	     283.38882
       2.57813	     275.21771
       2.65625	     198.47592
       2.73438	     180.11014
       2.81250	     282.82529
       2.89063	     179.12398
       2.96875	     217.50768
       3.04688	     314.43390
       3.12500	     249.00102
       3.20313	     325.48666
       3.28125	     289.75409
       3.35938	     312.02612
       3.43750	     203.85501
       3.51563	     236.03995
       3.59375	     213.43494
       3.67188	     209.05481
       3.75000	     247.50255
       3.82813	     245.32530
       3.90625	     181.22438
       3.98438	     360.86066
       4.06250	     168.03278
       4.14063	     244.01895
       4.21875	     204.59784
       4.29688	     225.43544
       4.37500	     229.11116
       4.45313	     178.02254
       4.53125	     163.75511
       4.60938	     289.77969
       4.68750	     203.47079
       4.76563	     259.79764
       4.84375	     212.15419
       4.92188	     229.18800
       5.00000	     292.93033
       5.07813	     223.37346
       5.15625	     204.55942
       5.23438	     292.67416
       5.31250	     180.26382
       5.39063	     209.95132
       5.46875	     271.04251
       5.54688	     349.19312
       5.62500	     260.27151
       5.70313	     183.10707
       5.78125	     234.05481
       5.85938	     208.36320
       5.93750	     286.46259
       6.01563	     195.12038
       6.09375	     290.21515
       6.17188	     219.96669
       6.25000	     245.26126
       6.32813	     192.59734
       6.40625	     188.37090
       6.48438	     279.64908
       6.56250	     191.07326
       6.64063	     169.35194
       6.71875	     198.87294
       6.79688	     248.96260
       6.87500	     236.36014
       6.95313	     233.09425
       7.03125	     187.26945
       7.10938	     199.98718
       7.18750	     241.54712
       7.26563	     314.94620
       7.34375	     209.87448
       7.42188	     295.37653
       7.50000	     163.37090
       7.57813	     281.32684
       7.65625	     254.57222
       7.73438	     225.49948
       7.81250	     193.63474
       7.89063	     225.33299
       7.96875	     311.61627
       8.04688	     264.07529
       8.12500	     285.63013
       8.20313	     204.39293
       8.28125	     284.08041
       8.35938	     364.80533
       8.43750	     384.87448
       8.51563	     211.18083
       8.59375	     307.31299
       8.67188	     190.79149
       8.75000	     268.82684
       8.82813	     287.71771
       8.90625	     303.20184
       8.98438	     447.45132
       9.06250	     191.61116
       9.14063	     262.26947
       9.21875	     179.23924
       9.29688	     277.25409
       9.37500	     228.68852
       9.45313	     197.04149
       9.53125	     202.88165
       9.60938	     226.76741
       9.68750	     246.99026
       9.76563	     259.86166
       9.84375	     235.38678
       9.92188	     167.99435
      10.00000	     206.94159
      10.07813	     223.45030
      10.15625	     237.61526
      10.23438	     324.84631
      10.31250	     293.25052
      10.39063	     209.11885
      10.46875	     340.13831
      10.54688	     277.97131
      10.62500	     230.45593
      10.70313	     293.85245
      10.78125	     178.90625
      10.85938	     303.25305
      10.93750	     197.02869
      11.01563	     207.83810
      11.09375	     315.16394
      11.17188	     258.58093
      11.25000	     270.69672
      11.32813	     203.88063
      11.40625	     180.84016
      11.48438	     305.89139
      11.56250	     301.94672
      11.64063	     243.50665
      11.71875	     202.54866
      11.79688	     176.33195
      11.87500	     239.54918
      11.95313	     250.92212
      12.03125	     201.54968
      12.10938	     216.82889
      12.18750	     330.48154
      12.26563	     356.25000
      12.34375	     184.45184
      12.42188	     181.51895
      12.50000	     217.64856
      12.57813	     395.19724
      12.65625	     259.73361
      12.73438	     228.02254
      12.81250	     236.85962
      12.89063	     190.42007
      12.96875	     304.00870
      13.04688	     262.82019
      13.12500	     225.57632
      13.20313	     361.71875
      13.28125	     204.66188
      13.35938	     215.11270
      13.43750	     153.27869
      13.51563	     170.58145
      13.59375	     253.95747
      13.67188	     272.41290
      13.75000	     242.44363
      13.82813	     193.27612
      13.90625	     317.61014
      13.98438	     189.06250
      14.06250	     336.60349
      14.14063	     280.07172
      14.21875	     176.61372
      14.29688	     222.84836
      14.37500	     339.99744
      14.45313	     311.97488
      14.53125	     229.77715
      14.60938	     296.65726
      14.68750	     295.46619
      14.76563	     235.63011
      14.84375	     210.45082
      14.92188	     217.40521
      15.00000	     164.66444
      15.07813	     382.08246
      15.15625	     249.06505
      15.23438	     200.39702
      15.31250	     221.15778
      15.39063	     294.42877
      15.46875	     218.90369
      15.54688	     226.42162
      15.62500	     173.78329
      15.70313	     355.16138
      15.78125	     192.00819
      15.85938	     243.01997
      15.93750	     283.63217
      16.01563	     353.45798
      16.09375	     322.56659
      16.17188	     243.53227
      16.25000	     215.95799
      16.32813	     260.28430
      16.40625	     191.70082
      16.48438	     198.94978
      16.56250	     210.65573
      16.64063	     235.11783
      16.71875	     274.01382
      16.79688	     228.21465
      16.87500	     195.68391
      16.95313	     211.91086
      17.03125	     277.35654
      17.10938	     202.47182
      17.18750	     232.47951
      17.26563	     238.88319
      17.34375	     243.45543
      17.42188	     198.65521
      17.50000	     297.33606
      17.57813	     314.88217
      17.65625	     254.38011
      17.73438	     323.43750
      17.81250	     237.56403
      17.89063	     233.13268
      17.96875	     242.39241
      18.04688	     176.78023
      18.12500	     368.35297
      18.20313	     192.00819
      18.28125	     221.26024
      18.35938	     197.06711
      18.43750	     256.80072
      18.51563	     186.16803
      18.59375	     328.30429
      18.67188	     342.66138
      18.75000	     400.90930
      18.82813	     184.00359
      18.90625	     211.60349
      18.98438	     218.72438
      19.06250	     230.17418
      19.14063	     211.16803
      19.21875	     246.37550
      19.29688	     280.67365
      19.37500	     244.55685
      19.45313	     198.96260
      19.53125	     259.13165
      19.60938	     181.76228
      19.68750	     298.43750
      19.76563	     265.33041
      19.84375	     244.51843
      19.92188	     172.73309

Monitor Diode	 248452.87

"Cumulant 1.Order"
FluctuationFreq. [1/ms]	 2.7835E-001
DiffCoefficient [µm²/s]	 4.3738E-001
Hydrodyn. Radius [nm]	 4.7867E+002

"Cumulant 2.Order"
FluctuationFreq. [1/ms]	 3.4673E-001
DiffCoefficient [µm²/s]	 5.4483E-001
Hydrodyn. Radius [nm]	 3.8427E+002
Expansion Parameter µ2	 5.0071E-002

"Cumulant 3.Order"
FluctuationFreq. [1/ms]	 3.5994E-001
DiffCoefficient [µm²/s]	 5.6559E-001
Hydrodyn. Radius [nm]	 3.7016E+002
Expansion Parameter µ2	 7.5554E-002
Expansion Parameter µ3	 1.4817E-002

"StandardDeviation"
  1.25000E-004	  1.40837E-002
  2.50000E-004	  1.40844E-002
  3.75000E-004	  1.40852E-002
  5.00000E-004	  1.40858E-002
  6.25000E-004	  1.40865E-002
  7.50000E-004	  1.40873E-002
  8.75000E-004	  1.40881E-002
  1.00000E-003	  1.40890E-002
  1.12500E-003	  1.40871E-002
  1.25000E-003	  1.40867E-002
  1.37500E-003	  1.40862E-002
  1.50000E-003	  1.40844E-002
  1.62500E-003	  1.40831E-002
  1.75000E-003	  1.40831E-002
  1.87500E-003	  1.40834E-002
  2.00000E-003	  1.38726E-002
  2.25000E-003	  1.38716E-002
  2.50000E-003	  1.38716E-002
  2.75000E-003	  1.38710E-002
  3.00000E-003	  1.38714E-002
  3.25000E-003	  1.38720E-002
  3.50000E-003	  1.38718E-002
  3.75000E-003	  1.38719E-002
  4.00000E-003	  1.37645E-002
  4.50000E-003	  1.37635E-002
  5.00000E-003	  1.37635E-002
  5.50000E-003	  1.37635E-002
  6.00000E-003	  1.37635E-002
  6.50000E-003	  1.37635E-002
  7.00000E-003	  1.37634E-002
  7.50000E-003	  1.37633E-002
  8.00000E-003	  1.37091E-002
  9.00000E-003	  1.37077E-002
  1.00000E-002	  1.37076E-002
  1.10000E-002	  1.37074E-002
  1.20000E-002	  1.37073E-002
  1.30000E-002	  1.37069E-002
  1.40000E-002	  1.37069E-002
  1.50000E-002	  1.37067E-002
  1.60000E-002	  1.36790E-002
  1.80000E-002	  1.36763E-002
  2.00000E-002	  1.36759E-002
  2.20000E-002	  1.36753E-002
  2.40000E-002	  1.36749E-002
  2.60000E-002	  1.36746E-002
  2.80000E-002	  1.36742E-002
  3.00000E-002	  1.36739E-002
  3.20000E-002	  1.36585E-002
  3.60000E-002	  1.36535E-002
  4.00000E-002	  1.36524E-002
  4.40000E-002	  1.36518E-002
  4.80000E-002	  1.36514E-002
  5.20000E-002	  1.36501E-002
  5.60000E-002	  1.36495E-002
  6.00000E-002	  1.36484E-002
  6.40000E-002	  1.36399E-002
  7.20000E-002	  1.36293E-002
  8.00000E-002	  1.36287E-002
  8.80000E-002	  1.36267E-002
  9.60000E-002	  1.36255E-002
  1.04000E-001	  1.36254E-002
  1.12000E-001	  1.36235E-002
  1.20000E-001	  1.36215E-002
  1.28000E-001	  1.36099E-002
  1.44000E-001	  1.35895E-002
  1.60000E-001	  1.35864E-002
  1.76000E-001	  1.35832E-002
  1.92000E-001	  1.35824E-002
  2.08000E-001	  1.35789E-002
  2.24000E-001	  1.35753E-002
  2.40000E-001	  1.35717E-002
  2.56000E-001	  1.35612E-002
  2.88000E-001	  1.35239E-002
  3.20000E-001	  1.35188E-002
  3.52000E-001	  1.35112E-002
  3.84000E-001	  1.35001E-002
  4.16000E-001	  1.34904E-002
  4.48000E-001	  1.34798E-002
  4.80000E-001	  1.34696E-002
  5.12000E-001	  1.34392E-002
  5.76000E-001	  1.33357E-002
  6.40000E-001	  1.33115E-002
  7.04000E-001	  1.32858E-002
  7.68000E-001	  1.32575E-002
  8.32000E-001	  1.32266E-002
  8.96000E-001	  1.31935E-002
  9.60000E-001	  1.31588E-002
  1.02400E+000	  1.31547E-002
  1.15200E+000	  1.30617E-002
  1.28000E+000	  1.29720E-002
  1.40800E+000	  1.28744E-002
  1.53600E+000	  1.27705E-002
  1.66400E+000	  1.26347E-002
  1.79200E+000	  1.25238E-002
  1.92000E+000	  1.24064E-002
  2.01600E+000	  1.22786E-002
  2.27200E+000	  1.20455E-002
  2.52800E+000	  1.18391E-002
  2.78400E+000	  1.16251E-002
  3.04000E+000	  1.14387E-002
  3.29600E+000	  1.12574E-002
  3.55200E+000	  1.10823E-002
  3.80800E+000	  1.09005E-002
  4.06400E+000	  1.06503E-002
  4.57600E+000	  1.03330E-002
  5.08800E+000	  1.00705E-002
  5.60000E+000	  9.88466E-003
  6.11200E+000	  9.72700E-003
  6.62400E+000	  9.58222E-003
  7.13600E+000	  9.43383E-003
  7.64800E+000	  9.26233E-003
  8.16000E+000	  9.08730E-003
  9.18400E+000	  8.86864E-003
  1.02080E+001	  8.72786E-003
  1.12320E+001	  8.67619E-003
  1.22560E+001	  8.66495E-003
  1.32800E+001	  8.59948E-003
  1.43040E+001	  8.44690E-003
  1.53280E+001	  8.18488E-003
  1.63520E+001	  7.60790E-003
  1.84000E+001	  6.66006E-003
  2.04480E+001	  6.66006E-003
  2.24960E+001	  6.66006E-003
  2.45440E+001	  6.66006E-003
  2.65920E+001	  6.66006E-003
  2.86400E+001	  6.66006E-003
  3.06880E+001	  6.66006E-003
  3.27360E+001	  6.08520E-003
  3.68320E+001	  6.08520E-003
  4.09280E+001	  6.08520E-003
  4.50240E+001	  6.08520E-003
  4.91200E+001	  6.08520E-003
  5.32160E+001	  6.08520E-003
  5.73120E+001	  6.08520E-003
  6.14080E+001	  6.08520E-003
  6.55040E+001	  5.61896E-003
  7.36960E+001	  5.61896E-003
  8.18880E+001	  5.61896E-003
  9.00800E+001	  5.61896E-003
  9.82720E+001	  5.61896E-003
  1.06464E+002	  5.61896E-003
  1.14656E+002	  5.61896E-003
  1.22848E+002	  5.61896E-003
  1.31040E+002	  4.82497E-003
  1.47424E+002	  4.82497E-003
  1.63808E+002	  4.82497E-003
  1.80192E+002	  4.82497E-003
  1.96576E+002	  4.82497E-003
  2.12960E+002	  4.82497E-003
  2.29344E+002	  4.82497E-003
  2.45728E+002	  4.82497E-003
  2.62112E+002	  3.99456E-003
  2.94880E+002	  3.99456E-003
  3.27648E+002	  3.99456E-003
  3.60416E+002	  3.99456E-003
  3.93184E+002	  3.99456E-003
  4.25952E+002	  3.99456E-003
  4.58720E+002	  3.99456E-003
  4.91488E+002	  3.99456E-003
