ALV-6000/E-WIN Data
Date :	"11/6/2025"
Time :	"4:07:53 PM"
Samplename : 	"NaCl - .99 micrometer"
SampMemo(0) : 	""
SampMemo(1) : 	""
SampMemo(2) : 	""
SampMemo(3) : 	""
SampMemo(4) : 	""
SampMemo(5) : 	""
SampMemo(6) : 	""
SampMemo(7) : 	""
SampMemo(8) : 	""
SampMemo(9) : 	""
Temperature [K] :	     292.22665
Viscosity [cp]  :	       1.02474
Refractive Index:	       1.33200
Wavelength [nm] :	     632.80000
Angle [°]       :	      99.99900
Duration [s]    :	        20
Runs            :	         1
Mode            :	"SINGLE AUTO CH0 "
MeanCR0 [kHz]   :	     357.52463
MeanCR1 [kHz]   :	       0.00000

"Correlation"
  1.25000E-004	  5.50418E+000
  2.50000E-004	  7.20593E+000
  3.75000E-004	  7.18422E+000
  5.00000E-004	  7.16613E+000
  6.25000E-004	  7.15460E+000
  7.50000E-004	  7.16057E+000
  8.75000E-004	  7.14865E+000
  1.00000E-003	  7.14517E+000
  1.12500E-003	  7.14238E+000
  1.25000E-003	  7.13974E+000
  1.37500E-003	  7.13499E+000
  1.50000E-003	  7.13814E+000
  1.62500E-003	  7.14099E+000
  1.75000E-003	  7.14766E+000
  1.87500E-003	  7.13765E+000
  2.00000E-003	  7.13652E+000
  2.25000E-003	  7.13245E+000
  2.50000E-003	  7.12978E+000
  2.75000E-003	  7.13547E+000
  3.00000E-003	  7.12728E+000
  3.25000E-003	  7.13680E+000
  3.50000E-003	  7.13159E+000
  3.75000E-003	  7.13438E+000
  4.00000E-003	  7.13236E+000
  4.50000E-003	  7.13225E+000
  5.00000E-003	  7.12588E+000
  5.50000E-003	  7.12353E+000
  6.00000E-003	  7.12152E+000
  6.50000E-003	  7.12616E+000
  7.00000E-003	  7.12411E+000
  7.50000E-003	  7.12709E+000
  8.00000E-003	  7.12069E+000
  9.00000E-003	  7.12095E+000
  1.00000E-002	  7.11411E+000
  1.10000E-002	  7.11373E+000
  1.20000E-002	  7.11302E+000
  1.30000E-002	  7.11104E+000
  1.40000E-002	  7.10489E+000
  1.50000E-002	  7.09994E+000
  1.60000E-002	  7.10267E+000
  1.80000E-002	  7.09973E+000
  2.00000E-002	  7.09704E+000
  2.20000E-002	  7.08987E+000
  2.40000E-002	  7.08654E+000
  2.60000E-002	  7.08095E+000
  2.80000E-002	  7.08141E+000
  3.00000E-002	  7.07475E+000
  3.20000E-002	  7.07075E+000
  3.60000E-002	  7.06125E+000
  4.00000E-002	  7.05499E+000
  4.40000E-002	  7.04530E+000
  4.80000E-002	  7.03712E+000
  5.20000E-002	  7.02912E+000
  5.60000E-002	  7.02029E+000
  6.00000E-002	  7.01403E+000
  6.40000E-002	  7.00361E+000
  7.20000E-002	  6.98709E+000
  8.00000E-002	  6.97041E+000
  8.80000E-002	  6.95159E+000
  9.60000E-002	  6.93711E+000
  1.04000E-001	  6.91910E+000
  1.12000E-001	  6.90363E+000
  1.20000E-001	  6.88628E+000
  1.28000E-001	  6.86747E+000
  1.44000E-001	  6.83494E+000
  1.60000E-001	  6.80349E+000
  1.76000E-001	  6.76901E+000
  1.92000E-001	  6.73534E+000
  2.08000E-001	  6.70265E+000
  2.24000E-001	  6.67039E+000
  2.40000E-001	  6.63775E+000
  2.56000E-001	  6.60509E+000
  2.88000E-001	  6.54086E+000
  3.20000E-001	  6.47747E+000
  3.52000E-001	  6.41436E+000
  3.84000E-001	  6.35211E+000
  4.16000E-001	  6.28954E+000
  4.48000E-001	  6.22817E+000
  4.80000E-001	  6.16878E+000
  5.12000E-001	  6.10830E+000
  5.76000E-001	  5.99051E+000
  6.40000E-001	  5.87486E+000
  7.04000E-001	  5.76141E+000
  7.68000E-001	  5.64994E+000
  8.32000E-001	  5.54059E+000
  8.96000E-001	  5.43283E+000
  9.60000E-001	  5.32725E+000
  1.02400E+000	  5.16882E+000
  1.15200E+000	  4.97073E+000
  1.28000E+000	  4.78085E+000
  1.40800E+000	  4.59884E+000
  1.53600E+000	  4.42394E+000
  1.66400E+000	  4.25668E+000
  1.79200E+000	  4.09666E+000
  1.92000E+000	  3.94384E+000
  2.01600E+000	  3.87174E+000
  2.27200E+000	  3.58919E+000
  2.52800E+000	  3.32823E+000
  2.78400E+000	  3.08694E+000
  3.04000E+000	  2.86493E+000
  3.29600E+000	  2.66116E+000
  3.55200E+000	  2.47285E+000
  3.80800E+000	  2.29923E+000
  4.06400E+000	  2.14110E+000
  4.57600E+000	  1.85450E+000
  5.08800E+000	  1.61280E+000
  5.60000E+000	  1.40047E+000
  6.11200E+000	  1.21732E+000
  6.62400E+000	  1.06100E+000
  7.13600E+000	  9.26352E-001
  7.64800E+000	  8.12097E-001
  8.16000E+000	  7.11773E-001
  9.18400E+000	  5.38036E-001
  1.02080E+001	  4.01866E-001
  1.12320E+001	  3.05460E-001
  1.22560E+001	  2.30205E-001
  1.32800E+001	  1.76997E-001
  1.43040E+001	  1.45900E-001
  1.53280E+001	  1.21098E-001
  1.63520E+001	  1.00043E-001
  1.84000E+001	  6.23235E-002
  2.04480E+001	  2.13519E-002
  2.24960E+001	  4.47267E-003
  2.45440E+001	  2.13226E-002
  2.65920E+001	  3.99012E-002
  2.86400E+001	  4.78080E-002
  3.06880E+001	  4.39545E-002
  3.27360E+001	  3.77895E-002
  3.68320E+001	  3.93160E-002
  4.09280E+001	  4.14310E-002
  4.50240E+001	  3.87902E-002
  4.91200E+001	  1.72065E-002
  5.32160E+001	 -8.77609E-003
  5.73120E+001	  8.48677E-003
  6.14080E+001	  2.78681E-002
  6.55040E+001	  3.70618E-002
  7.36960E+001	  3.59447E-002
  8.18880E+001	  4.19475E-002
  9.00800E+001	  4.94000E-002
  9.82720E+001	  3.19173E-002
  1.06464E+002	  4.29237E-002
  1.14656E+002	  6.01295E-002
  1.22848E+002	  4.76747E-002
  1.31040E+002	  4.68326E-002
  1.47424E+002	  1.39735E-002
  1.63808E+002	  1.74178E-002
  1.80192E+002	 -2.98634E-002
  1.96576E+002	 -1.43973E-002
  2.12960E+002	 -2.51597E-003
  2.29344E+002	 -1.80660E-002
  2.45728E+002	  2.09385E-002
  2.62112E+002	  1.11266E-002
  2.94880E+002	  1.72837E-002
  3.27648E+002	  1.19903E-004
  3.60416E+002	  1.64703E-002
  3.93184E+002	  1.54790E-002
  4.25952E+002	  1.12715E-002
  4.58720E+002	  9.41439E-003
  4.91488E+002	  1.92629E-002
  5.24256E+002	  3.37171E-002
  5.89792E+002	  1.20447E-002
  6.55328E+002	 -5.30434E-003
  7.20864E+002	 -2.65756E-003
  7.86400E+002	  5.95569E-003
  8.51936E+002	  1.38778E-002
  9.17472E+002	  2.03827E-002
  9.83008E+002	  7.70482E-003
  1.04854E+003	  7.77427E-003
  1.17962E+003	 -2.87366E-003
  1.31069E+003	  2.82997E-002
  1.44176E+003	 -6.26928E-003
  1.57283E+003	  1.15646E-002
  1.70390E+003	 -1.80939E-002
  1.83498E+003	 -5.75189E-003
  1.96605E+003	 -1.43507E-002
  2.09712E+003	 -2.69446E-002
  2.35926E+003	  1.25811E-003
  2.62141E+003	  1.45632E-002
  2.88355E+003	  2.81378E-003
  3.14570E+003	 -1.30112E-003
  3.40784E+003	  9.17006E-003
  3.66998E+003	  1.37066E-003
  3.93213E+003	 -1.78613E-003
  4.19427E+003	 -1.35315E-002
  4.71856E+003	 -1.32478E-002
  5.24285E+003	 -2.26271E-004
  5.76714E+003	 -2.61148E-002
  6.29142E+003	  7.36615E-003
  6.81571E+003	 -3.23278E-003
  7.34000E+003	 -2.46022E-003
  7.86429E+003	  2.90999E-003

"Count Rate"
       0.07813	     348.28381
       0.15625	     424.33401
       0.23438	     267.68698
       0.31250	     368.25049
       0.39063	     323.02765
       0.46875	     517.39240
       0.54688	     298.46310
       0.62500	     420.76074
       0.70313	     331.08350
       0.78125	     456.32684
       0.85938	     465.89395
       0.93750	     444.32632
       1.01563	     375.07684
       1.09375	     466.49588
       1.17188	     158.58093
       1.25000	     349.94876
       1.32813	     255.50717
       1.40625	     302.03638
       1.48438	     333.37601
       1.56250	     422.74588
       1.64063	     359.40060
       1.71875	     394.65930
       1.79688	     352.97131
       1.87500	     396.97745
       1.95313	     447.57941
       2.03125	     430.22540
       2.10938	     275.08963
       2.18750	     333.23514
       2.26563	     358.27356
       2.34375	     380.32785
       2.42188	     312.66647
       2.50000	     281.54456
       2.57813	     409.92572
       2.65625	     272.68185
       2.73438	     370.26126
       2.81250	     464.12653
       2.89063	     293.41699
       2.96875	     404.48257
       3.04688	     431.85193
       3.12500	     312.00049
       3.20313	     367.43082
       3.28125	     451.47284
       3.35938	     303.65009
       3.43750	     410.71976
       3.51563	     328.16342
       3.59375	     334.56711
       3.67188	     396.83658
       3.75000	     307.74844
       3.82813	     277.99692
       3.90625	     267.53329
       3.98438	     299.89752
       4.06250	     238.14037
       4.14063	     311.46259
       4.21875	     337.89703
       4.29688	     314.44672
       4.37500	     410.25870
       4.45313	     220.42776
       4.53125	     243.44261
       4.60938	     466.36783
       4.68750	     458.17108
       4.76563	     518.89087
       4.84375	     479.98206
       4.92188	     286.76996
       5.00000	     400.66599
       5.07813	     370.27408
       5.15625	     346.79816
       5.23438	     294.69772
       5.31250	     315.98361
       5.39063	     333.22232
       5.46875	     444.55685
       5.54688	     313.07632
       5.62500	     291.08606
       5.70313	     394.33914
       5.78125	     267.43085
       5.85938	     320.64548
       5.93750	     346.67007
       6.01563	     364.19055
       6.09375	     252.33093
       6.17188	     346.95184
       6.25000	     506.57016
       6.32813	     260.48923
       6.40625	     269.96671
       6.48438	     314.76691
       6.56250	     256.59579
       6.64063	     417.96875
       6.71875	     365.54816
       6.79688	     318.83963
       6.87500	     249.57735
       6.95313	     357.55634
       7.03125	     323.88574
       7.10938	     290.76587
       7.18750	     272.38730
       7.26563	     283.04303
       7.34375	     376.33197
       7.42188	     334.10605
       7.50000	     307.37704
       7.57813	     388.67825
       7.65625	     456.54456
       7.73438	     397.57941
       7.81250	     301.12704
       7.89063	     472.77151
       7.96875	     352.89447
       8.04688	     273.80890
       8.12500	     311.75717
       8.20313	     449.03943
       8.28125	     311.38574
       8.35938	     250.98616
       8.43750	     350.38422
       8.51563	     233.17110
       8.59375	     449.29559
       8.67188	     283.95236
       8.75000	     477.98410
       8.82813	     361.11679
       8.90625	     341.20132
       8.98438	     525.30737
       9.06250	     505.99384
       9.14063	     451.06299
       9.21875	     420.63266
       9.29688	     329.14957
       9.37500	     350.80685
       9.45313	     257.36423
       9.53125	     406.95441
       9.60938	     638.19159
       9.68750	     424.56454
       9.76563	     357.12088
       9.84375	     340.42007
       9.92188	     500.66595
      10.00000	     439.69006
      10.07813	     247.80994
      10.15625	     411.43698
      10.23438	     681.18597
      10.31250	     340.82990
      10.39063	     308.90112
      10.46875	     406.91599
      10.54688	     315.68903
      10.62500	     306.42929
      10.70313	     293.81403
      10.78125	     432.82529
      10.85938	     331.80072
      10.93750	     332.09528
      11.01563	     477.58707
      11.09375	     357.78687
      11.17188	     413.69107
      11.25000	     268.31454
      11.32813	     389.26740
      11.40625	     431.96719
      11.48438	     283.64496
      11.56250	     324.89752
      11.64063	     492.40521
      11.71875	     397.87396
      11.79688	     431.90317
      11.87500	     242.23872
      11.95313	     267.31555
      12.03125	     311.11679
      12.10938	     366.96976
      12.18750	     348.88574
      12.26563	     283.93954
      12.34375	     576.54968
      12.42188	     397.01587
      12.50000	     533.95233
      12.57813	     382.26178
      12.65625	     311.14240
      12.73438	     393.75000
      12.81250	     481.49332
      12.89063	     440.88113
      12.96875	     404.27765
      13.04688	     332.30020
      13.12500	     280.94263
      13.20313	     267.49487
      13.28125	     420.88882
      13.35938	     279.58502
      13.43750	     223.05327
      13.51563	     379.22641
      13.59375	     260.07941
      13.67188	     255.57120
      13.75000	     544.87701
      13.82813	     297.73309
      13.90625	     400.07684
      13.98438	     376.78021
      14.06250	     374.57733
      14.14063	     518.35297
      14.21875	     326.61371
      14.29688	     317.85349
      14.37500	     329.57224
      14.45313	     503.30429
      14.53125	     415.30481
      14.60938	     568.17365
      14.68750	     227.07478
      14.76563	     239.60040
      14.84375	     250.83247
      14.92188	     347.34888
      15.00000	     298.73206
      15.07813	     344.51843
      15.15625	     332.73566
      15.23438	     257.15930
      15.31250	     330.95541
      15.39063	     506.64700
      15.46875	     322.79712
      15.54688	     429.81555
      15.62500	     428.29147
      15.70313	     414.04968
      15.78125	     390.49692
      15.85938	     428.20184
      15.93750	     332.46671
      16.01563	     293.76279
      16.09375	     279.38013
      16.17188	     253.68852
      16.25000	     254.20081
      16.32813	     275.23053
      16.40625	     337.37192
      16.48438	     331.44211
      16.56250	     232.19774
      16.64063	     323.06607
      16.71875	     240.62500
      16.79688	     424.87192
      16.87500	     352.59988
      16.95313	     189.01126
      17.03125	     538.38367
      17.10938	     262.41034
      17.18750	     345.72232
      17.26563	     252.68954
      17.34375	     603.75256
      17.42188	     387.65369
      17.50000	     261.21927
      17.57813	     431.45490
      17.65625	     263.99844
      17.73438	     274.20593
      17.81250	     221.09375
      17.89063	     350.15369
      17.96875	     292.35397
      18.04688	     492.14908
      18.12500	     272.38730
      18.20313	     322.10553
      18.28125	     414.98462
      18.35938	     397.59219
      18.43750	     372.40009
      18.51563	     268.05838
      18.59375	     279.27765
      18.67188	     254.32889
      18.75000	     358.55533
      18.82813	     401.19107
      18.90625	     277.51022
      18.98438	     216.61116
      19.06250	     333.96515
      19.14063	     414.57477
      19.21875	     359.98975
      19.29688	     324.70541
      19.37500	     376.17825
      19.45313	     572.75867
      19.53125	     307.94055
      19.60938	     438.39651
      19.68750	     365.74026
      19.76563	     362.48718
      19.84375	     403.68851
      19.92188	     418.92929

Monitor Diode	 256013.64

"Cumulant 1.Order"
FluctuationFreq. [1/ms]	 1.5469E-001
DiffCoefficient [µm²/s]	 3.7676E-001
Hydrodyn. Radius [nm]	 5.5414E+002

"Cumulant 2.Order"
FluctuationFreq. [1/ms]	 1.5833E-001
DiffCoefficient [µm²/s]	 3.8564E-001
Hydrodyn. Radius [nm]	 5.4139E+002
Expansion Parameter µ2	 1.7346E-003

"Cumulant 3.Order"
FluctuationFreq. [1/ms]	 1.6320E-001
DiffCoefficient [µm²/s]	 3.9749E-001
Hydrodyn. Radius [nm]	 5.2525E+002
Expansion Parameter µ2	 7.6465E-003
Expansion Parameter µ3	 2.1776E-003

"StandardDeviation"
  1.25000E-004	  1.89673E-002
  2.50000E-004	  1.89679E-002
  3.75000E-004	  1.89685E-002
  5.00000E-004	  1.89691E-002
  6.25000E-004	  1.89696E-002
  7.50000E-004	  1.89702E-002
  8.75000E-004	  1.89708E-002
  1.00000E-003	  1.89714E-002
  1.12500E-003	  1.89699E-002
  1.25000E-003	  1.89698E-002
  1.37500E-003	  1.89694E-002
  1.50000E-003	  1.89691E-002
  1.62500E-003	  1.89685E-002
  1.75000E-003	  1.89680E-002
  1.87500E-003	  1.89682E-002
  2.00000E-003	  1.88942E-002
  2.25000E-003	  1.88945E-002
  2.50000E-003	  1.88946E-002
  2.75000E-003	  1.88946E-002
  3.00000E-003	  1.88943E-002
  3.25000E-003	  1.88946E-002
  3.50000E-003	  1.88942E-002
  3.75000E-003	  1.88943E-002
  4.00000E-003	  1.88573E-002
  4.50000E-003	  1.88567E-002
  5.00000E-003	  1.88566E-002
  5.50000E-003	  1.88567E-002
  6.00000E-003	  1.88567E-002
  6.50000E-003	  1.88567E-002
  7.00000E-003	  1.88567E-002
  7.50000E-003	  1.88567E-002
  8.00000E-003	  1.88378E-002
  9.00000E-003	  1.88368E-002
  1.00000E-002	  1.88368E-002
  1.10000E-002	  1.88368E-002
  1.20000E-002	  1.88368E-002
  1.30000E-002	  1.88367E-002
  1.40000E-002	  1.88366E-002
  1.50000E-002	  1.88366E-002
  1.60000E-002	  1.88268E-002
  1.80000E-002	  1.88248E-002
  2.00000E-002	  1.88247E-002
  2.20000E-002	  1.88246E-002
  2.40000E-002	  1.88245E-002
  2.60000E-002	  1.88244E-002
  2.80000E-002	  1.88242E-002
  3.00000E-002	  1.88241E-002
  3.20000E-002	  1.88183E-002
  3.60000E-002	  1.88143E-002
  4.00000E-002	  1.88140E-002
  4.40000E-002	  1.88136E-002
  4.80000E-002	  1.88132E-002
  5.20000E-002	  1.88128E-002
  5.60000E-002	  1.88123E-002
  6.00000E-002	  1.88117E-002
  6.40000E-002	  1.88074E-002
  7.20000E-002	  1.87995E-002
  8.00000E-002	  1.87986E-002
  8.80000E-002	  1.87976E-002
  9.60000E-002	  1.87963E-002
  1.04000E-001	  1.87952E-002
  1.12000E-001	  1.87939E-002
  1.20000E-001	  1.87925E-002
  1.28000E-001	  1.87837E-002
  1.44000E-001	  1.87674E-002
  1.60000E-001	  1.87646E-002
  1.76000E-001	  1.87615E-002
  1.92000E-001	  1.87592E-002
  2.08000E-001	  1.87556E-002
  2.24000E-001	  1.87519E-002
  2.40000E-001	  1.87477E-002
  2.56000E-001	  1.87359E-002
  2.88000E-001	  1.87022E-002
  3.20000E-001	  1.86947E-002
  3.52000E-001	  1.86854E-002
  3.84000E-001	  1.86732E-002
  4.16000E-001	  1.86629E-002
  4.48000E-001	  1.86516E-002
  4.80000E-001	  1.86387E-002
  5.12000E-001	  1.86060E-002
  5.76000E-001	  1.85262E-002
  6.40000E-001	  1.84956E-002
  7.04000E-001	  1.84649E-002
  7.68000E-001	  1.84296E-002
  8.32000E-001	  1.83962E-002
  8.96000E-001	  1.83586E-002
  9.60000E-001	  1.83205E-002
  1.02400E+000	  1.83331E-002
  1.15200E+000	  1.81925E-002
  1.28000E+000	  1.81007E-002
  1.40800E+000	  1.80045E-002
  1.53600E+000	  1.79016E-002
  1.66400E+000	  1.77826E-002
  1.79200E+000	  1.76690E-002
  1.92000E+000	  1.75399E-002
  2.01600E+000	  1.73275E-002
  2.27200E+000	  1.70382E-002
  2.52800E+000	  1.67924E-002
  2.78400E+000	  1.65243E-002
  3.04000E+000	  1.62612E-002
  3.29600E+000	  1.59965E-002
  3.55200E+000	  1.57251E-002
  3.80800E+000	  1.54576E-002
  4.06400E+000	  1.51355E-002
  4.57600E+000	  1.45410E-002
  5.08800E+000	  1.40372E-002
  5.60000E+000	  1.35618E-002
  6.11200E+000	  1.30985E-002
  6.62400E+000	  1.26746E-002
  7.13600E+000	  1.22764E-002
  7.64800E+000	  1.19289E-002
  8.16000E+000	  9.87206E-003
  9.18400E+000	  9.87206E-003
  1.02080E+001	  9.87206E-003
  1.12320E+001	  9.87206E-003
  1.22560E+001	  9.87206E-003
  1.32800E+001	  9.87206E-003
  1.43040E+001	  9.87206E-003
  1.53280E+001	  9.87206E-003
  1.63520E+001	  9.49378E-003
  1.84000E+001	  9.49378E-003
  2.04480E+001	  9.49378E-003
  2.24960E+001	  9.49378E-003
  2.45440E+001	  9.49378E-003
  2.65920E+001	  9.49378E-003
  2.86400E+001	  9.49378E-003
  3.06880E+001	  9.49378E-003
  3.27360E+001	  8.73921E-003
  3.68320E+001	  8.73921E-003
  4.09280E+001	  8.73921E-003
  4.50240E+001	  8.73921E-003
  4.91200E+001	  8.73921E-003
  5.32160E+001	  8.73921E-003
  5.73120E+001	  8.73921E-003
  6.14080E+001	  8.73921E-003
  6.55040E+001	  8.45709E-003
  7.36960E+001	  8.45709E-003
  8.18880E+001	  8.45709E-003
  9.00800E+001	  8.45709E-003
  9.82720E+001	  8.45709E-003
  1.06464E+002	  8.45709E-003
  1.14656E+002	  8.45709E-003
  1.22848E+002	  8.45709E-003
  1.31040E+002	  7.14687E-003
  1.47424E+002	  7.14687E-003
  1.63808E+002	  7.14687E-003
  1.80192E+002	  7.14687E-003
  1.96576E+002	  7.14687E-003
  2.12960E+002	  7.14687E-003
  2.29344E+002	  7.14687E-003
  2.45728E+002	  7.14687E-003
  2.62112E+002	  5.59736E-003
  2.94880E+002	  5.59736E-003
  3.27648E+002	  5.59736E-003
  3.60416E+002	  5.59736E-003
  3.93184E+002	  5.59736E-003
  4.25952E+002	  5.59736E-003
  4.58720E+002	  5.59736E-003
  4.91488E+002	  5.59736E-003
