ALV-6000/E-WIN Data
Date :	"11/6/2025"
Time :	"4:30:20 PM"
Samplename : 	"NaCl - .99 micrometer"
SampMemo(0) : 	""
SampMemo(1) : 	""
SampMemo(2) : 	""
SampMemo(3) : 	""
SampMemo(4) : 	""
SampMemo(5) : 	""
SampMemo(6) : 	""
SampMemo(7) : 	""
SampMemo(8) : 	""
SampMemo(9) : 	""
Temperature [K] :	     292.23853
Viscosity [cp]  :	       1.02443
Refractive Index:	       1.33200
Wavelength [nm] :	     632.80000
Angle [°]       :	     119.99900
Duration [s]    :	        20
Runs            :	         1
Mode            :	"SINGLE AUTO CH0 "
MeanCR0 [kHz]   :	     191.64432
MeanCR1 [kHz]   :	       0.00000

"Correlation"
  1.25000E-004	  6.19187E+000
  2.50000E-004	  8.06049E+000
  3.75000E-004	  8.03761E+000
  5.00000E-004	  8.02571E+000
  6.25000E-004	  8.02764E+000
  7.50000E-004	  8.00472E+000
  8.75000E-004	  8.01065E+000
  1.00000E-003	  7.99981E+000
  1.12500E-003	  7.99801E+000
  1.25000E-003	  7.98040E+000
  1.37500E-003	  7.98724E+000
  1.50000E-003	  7.99939E+000
  1.62500E-003	  7.97715E+000
  1.75000E-003	  7.98973E+000
  1.87500E-003	  7.97444E+000
  2.00000E-003	  7.98337E+000
  2.25000E-003	  7.98499E+000
  2.50000E-003	  7.98291E+000
  2.75000E-003	  7.99342E+000
  3.00000E-003	  7.99589E+000
  3.25000E-003	  7.97740E+000
  3.50000E-003	  7.98623E+000
  3.75000E-003	  7.98116E+000
  4.00000E-003	  7.98223E+000
  4.50000E-003	  7.98256E+000
  5.00000E-003	  7.97575E+000
  5.50000E-003	  7.97339E+000
  6.00000E-003	  7.98512E+000
  6.50000E-003	  7.96804E+000
  7.00000E-003	  7.97312E+000
  7.50000E-003	  7.97146E+000
  8.00000E-003	  7.96698E+000
  9.00000E-003	  7.97127E+000
  1.00000E-002	  7.96388E+000
  1.10000E-002	  7.96227E+000
  1.20000E-002	  7.95280E+000
  1.30000E-002	  7.95372E+000
  1.40000E-002	  7.95438E+000
  1.50000E-002	  7.94319E+000
  1.60000E-002	  7.94084E+000
  1.80000E-002	  7.93534E+000
  2.00000E-002	  7.93174E+000
  2.20000E-002	  7.92676E+000
  2.40000E-002	  7.91823E+000
  2.60000E-002	  7.91601E+000
  2.80000E-002	  7.90848E+000
  3.00000E-002	  7.90007E+000
  3.20000E-002	  7.89345E+000
  3.60000E-002	  7.88405E+000
  4.00000E-002	  7.86780E+000
  4.40000E-002	  7.85842E+000
  4.80000E-002	  7.84538E+000
  5.20000E-002	  7.83374E+000
  5.60000E-002	  7.81980E+000
  6.00000E-002	  7.80872E+000
  6.40000E-002	  7.79583E+000
  7.20000E-002	  7.77122E+000
  8.00000E-002	  7.74631E+000
  8.80000E-002	  7.72141E+000
  9.60000E-002	  7.69704E+000
  1.04000E-001	  7.67322E+000
  1.12000E-001	  7.64793E+000
  1.20000E-001	  7.62573E+000
  1.28000E-001	  7.60039E+000
  1.44000E-001	  7.54937E+000
  1.60000E-001	  7.50251E+000
  1.76000E-001	  7.45361E+000
  1.92000E-001	  7.40472E+000
  2.08000E-001	  7.35736E+000
  2.24000E-001	  7.31061E+000
  2.40000E-001	  7.26469E+000
  2.56000E-001	  7.21724E+000
  2.88000E-001	  7.12462E+000
  3.20000E-001	  7.03316E+000
  3.52000E-001	  6.94332E+000
  3.84000E-001	  6.85342E+000
  4.16000E-001	  6.76584E+000
  4.48000E-001	  6.67984E+000
  4.80000E-001	  6.59472E+000
  5.12000E-001	  6.51051E+000
  5.76000E-001	  6.34507E+000
  6.40000E-001	  6.18416E+000
  7.04000E-001	  6.02780E+000
  7.68000E-001	  5.87495E+000
  8.32000E-001	  5.72603E+000
  8.96000E-001	  5.58101E+000
  9.60000E-001	  5.43928E+000
  1.02400E+000	  5.30131E+000
  1.15200E+000	  5.03716E+000
  1.28000E+000	  4.78729E+000
  1.40800E+000	  4.55045E+000
  1.53600E+000	  4.32641E+000
  1.66400E+000	  4.11577E+000
  1.79200E+000	  3.91554E+000
  1.92000E+000	  3.72585E+000
  2.01600E+000	  3.58813E+000
  2.27200E+000	  3.24894E+000
  2.52800E+000	  2.94250E+000
  2.78400E+000	  2.66501E+000
  3.04000E+000	  2.41579E+000
  3.29600E+000	  2.19197E+000
  3.55200E+000	  1.98665E+000
  3.80800E+000	  1.80289E+000
  4.06400E+000	  1.63988E+000
  4.57600E+000	  1.34992E+000
  5.08800E+000	  1.11405E+000
  5.60000E+000	  9.21290E-001
  6.11200E+000	  7.66749E-001
  6.62400E+000	  6.41209E-001
  7.13600E+000	  5.38264E-001
  7.64800E+000	  4.53435E-001
  8.16000E+000	  3.83943E-001
  9.18400E+000	  2.70628E-001
  1.02080E+001	  1.97863E-001
  1.12320E+001	  1.45363E-001
  1.22560E+001	  1.18988E-001
  1.32800E+001	  9.54683E-002
  1.43040E+001	  6.46297E-002
  1.53280E+001	  4.53355E-002
  1.63520E+001	  3.13271E-002
  1.84000E+001	  8.40686E-003
  2.04480E+001	 -7.57931E-003
  2.24960E+001	 -1.72877E-002
  2.45440E+001	  6.10717E-004
  2.65920E+001	  6.24002E-003
  2.86400E+001	  6.16152E-003
  3.06880E+001	 -4.00995E-003
  3.27360E+001	  9.12920E-003
  3.68320E+001	  7.49055E-003
  4.09280E+001	 -1.67614E-002
  4.50240E+001	 -9.23888E-003
  4.91200E+001	 -1.66065E-003
  5.32160E+001	 -1.76421E-002
  5.73120E+001	 -4.29950E-002
  6.14080E+001	 -2.35176E-002
  6.55040E+001	 -8.23684E-003
  7.36960E+001	 -3.54059E-003
  8.18880E+001	 -3.42773E-002
  9.00800E+001	 -1.37564E-002
  9.82720E+001	  4.95315E-003
  1.06464E+002	 -8.14073E-004
  1.14656E+002	 -1.73972E-002
  1.22848E+002	 -2.81548E-002
  1.31040E+002	  5.30964E-003
  1.47424E+002	 -2.12936E-002
  1.63808E+002	 -2.62682E-003
  1.80192E+002	 -7.13203E-003
  1.96576E+002	 -1.44920E-002
  2.12960E+002	  1.95621E-002
  2.29344E+002	  5.13098E-003
  2.45728E+002	 -5.86290E-003
  2.62112E+002	 -5.51757E-003
  2.94880E+002	  9.66811E-003
  3.27648E+002	 -1.29125E-003
  3.60416E+002	 -3.40686E-002
  3.93184E+002	 -8.45194E-003
  4.25952E+002	  1.86370E-002
  4.58720E+002	  1.07230E-002
  4.91488E+002	  1.56394E-003
  5.24256E+002	  1.13910E-002
  5.89792E+002	 -1.05734E-002
  6.55328E+002	  6.80289E-003
  7.20864E+002	 -2.69438E-003
  7.86400E+002	  6.24870E-003
  8.51936E+002	  2.16239E-003
  9.17472E+002	 -1.57011E-002
  9.83008E+002	 -7.36231E-003
  1.04854E+003	  1.09908E-003
  1.17962E+003	  7.05169E-003
  1.31069E+003	 -6.42676E-003
  1.44176E+003	 -6.75279E-003
  1.57283E+003	 -2.82462E-003
  1.70390E+003	 -6.97756E-003
  1.83498E+003	  9.88872E-003
  1.96605E+003	 -4.92526E-003
  2.09712E+003	  7.27554E-004
  2.35926E+003	 -5.21171E-003
  2.62141E+003	  4.50162E-003
  2.88355E+003	  5.03858E-004
  3.14570E+003	  5.91075E-003
  3.40784E+003	 -2.28281E-003
  3.66998E+003	 -1.03707E-003
  3.93213E+003	  1.11535E-002
  4.19427E+003	  3.58804E-003
  4.71856E+003	 -1.33029E-002
  5.24285E+003	 -7.86569E-004
  5.76714E+003	  9.46969E-003
  6.29142E+003	  4.28193E-003
  6.81571E+003	  3.41424E-003
  7.34000E+003	  1.00069E-002
  7.86429E+003	 -1.24690E-002

"Count Rate"
       0.07813	     172.92520
       0.15625	     200.03842
       0.23438	     203.35553
       0.31250	     207.23616
       0.39063	     180.32787
       0.46875	     199.87192
       0.54688	     257.08246
       0.62500	     118.42981
       0.70313	     222.73309
       0.78125	     156.12192
       0.85938	     240.44569
       0.93750	     137.60245
       1.01563	     211.56505
       1.09375	     151.60092
       1.17188	     154.62346
       1.25000	     158.24794
       1.32813	     235.84784
       1.40625	     215.72745
       1.48438	     150.14088
       1.56250	     180.12294
       1.64063	      87.52561
       1.71875	     218.99333
       1.79688	     180.60962
       1.87500	     175.69159
       1.95313	     214.33145
       2.03125	     141.30379
       2.10938	     260.92468
       2.18750	     150.99898
       2.26563	     200.48668
       2.34375	     246.20901
       2.42188	     234.28534
       2.50000	     214.79251
       2.57813	     155.03329
       2.65625	     196.63165
       2.73438	     112.12859
       2.81250	     122.33606
       2.89063	     219.40317
       2.96875	     200.52510
       3.04688	     164.67725
       3.12500	     337.26947
       3.20313	     208.06863
       3.28125	     147.41290
       3.35938	     128.12500
       3.43750	     172.79712
       3.51563	     215.20235
       3.59375	     162.84579
       3.67188	     152.90727
       3.75000	     134.61833
       3.82813	     115.61219
       3.90625	     129.11116
       3.98438	     229.76434
       4.06250	     154.61066
       4.14063	     383.81146
       4.21875	     172.43852
       4.29688	     243.37859
       4.37500	     229.04712
       4.45313	     154.68750
       4.53125	     203.24026
       4.60938	     210.84784
       4.68750	     207.79968
       4.76563	     167.93033
       4.84375	     187.66649
       4.92188	     249.80788
       5.00000	     222.50255
       5.07813	     202.27971
       5.15625	     153.93185
       5.23438	     194.51843
       5.31250	     119.65932
       5.39063	     199.60297
       5.46875	     126.17828
       5.54688	     177.77919
       5.62500	     230.89139
       5.70313	     110.64293
       5.78125	     233.10706
       5.85938	     195.96567
       5.93750	     178.56044
       6.01563	     165.29201
       6.09375	     238.57581
       6.17188	     237.65369
       6.25000	     241.64958
       6.32813	     148.66803
       6.40625	     231.58299
       6.48438	     150.46106
       6.56250	     156.19876
       6.64063	     216.26537
       6.71875	     177.79201
       6.79688	     143.66034
       6.87500	     198.37346
       6.95313	     139.22899
       7.03125	     258.32480
       7.10938	     138.56300
       7.18750	     143.12244
       7.26563	     236.39856
       7.34375	     229.20081
       7.42188	     203.30429
       7.50000	     144.08299
       7.57813	     337.58963
       7.65625	     191.54712
       7.73438	     229.59784
       7.81250	     197.79712
       7.89063	     130.35349
       7.96875	     116.11168
       8.04688	     211.62909
       8.12500	     200.94774
       8.20313	     195.55583
       8.28125	     189.61320
       8.35938	     113.71670
       8.43750	     177.35655
       8.51563	     111.12961
       8.59375	     195.09477
       8.67188	     147.05431
       8.75000	     226.24231
       8.82813	     134.06761
       8.90625	     151.75461
       8.98438	     155.78893
       9.06250	     213.42212
       9.14063	     168.13524
       9.21875	     114.86936
       9.29688	     183.97797
       9.37500	     197.05429
       9.45313	     179.45695
       9.53125	     164.51076
       9.60938	     147.37448
       9.68750	     126.74180
       9.76563	     152.97131
       9.84375	     175.49948
       9.92188	     211.02715
      10.00000	     162.28227
      10.07813	     258.61935
      10.15625	     342.28995
      10.23438	     146.50359
      10.31250	     274.46210
      10.39063	     187.47438
      10.46875	     129.84119
      10.54688	     190.74026
      10.62500	     338.83197
      10.70313	     196.37550
      10.78125	     306.09631
      10.85938	     174.67981
      10.93750	     201.05020
      11.01563	     221.18340
      11.09375	     202.58708
      11.17188	     207.47951
      11.25000	     158.93954
      11.32813	     183.31198
      11.40625	     203.45799
      11.48438	     243.80122
      11.56250	     190.21516
      11.64063	     222.04149
      11.71875	     189.53636
      11.79688	     191.90573
      11.87500	     191.30379
      11.95313	     131.27560
      12.03125	     255.48155
      12.10938	     196.08093
      12.18750	     223.73206
      12.26563	     181.92879
      12.34375	     175.43544
      12.42188	     190.15112
      12.50000	     166.02202
      12.57813	     292.45645
      12.65625	     169.49283
      12.73438	     274.10349
      12.81250	     194.14702
      12.89063	     213.25563
      12.96875	     199.32120
      13.04688	     213.14037
      13.12500	     134.06761
      13.20313	     123.56557
      13.28125	     240.62500
      13.35938	     300.58914
      13.43750	     148.64241
      13.51563	     177.30533
      13.59375	     251.93391
      13.67188	     131.21158
      13.75000	     177.04918
      13.82813	     120.26127
      13.90625	     154.86681
      13.98438	     192.94313
      14.06250	     110.13063
      14.14063	     278.34271
      14.21875	     249.71823
      14.29688	     179.50819
      14.37500	     240.88113
      14.45313	     303.53482
      14.53125	     226.53688
      14.60938	     124.85912
      14.68750	     169.28790
      14.76563	     162.98668
      14.84375	     169.51843
      14.92188	     226.53688
      15.00000	     125.83247
      15.07813	     213.83195
      15.15625	     216.76485
      15.23438	     217.12346
      15.31250	     149.12909
      15.39063	     215.98360
      15.46875	     145.31250
      15.54688	     133.31198
      15.62500	     186.85962
      15.70313	     206.91599
      15.78125	     173.64241
      15.85938	     231.18596
      15.93750	     157.96619
      16.01563	     156.05789
      16.09375	     277.16443
      16.17188	     243.73718
      16.25000	     118.53227
      16.32813	     219.46721
      16.40625	     192.57172
      16.48438	     135.77100
      16.56250	     171.77254
      16.64063	     264.20337
      16.71875	     315.59937
      16.79688	     228.88063
      16.87500	     199.29559
      16.95313	     124.16752
      17.03125	     218.98053
      17.10938	     172.87398
      17.18750	     175.84528
      17.26563	     176.93391
      17.34375	     288.10193
      17.42188	     278.59888
      17.50000	     158.78586
      17.57813	     231.16034
      17.65625	     228.03534
      17.73438	     210.00255
      17.81250	     211.46260
      17.89063	     183.90112
      17.96875	     147.28484
      18.04688	     207.97899
      18.12500	     199.85912
      18.20313	     150.73001
      18.28125	     161.89806
      18.35938	     184.73360
      18.43750	     171.26024
      18.51563	     137.44876
      18.59375	     131.73668
      18.67188	     204.12396
      18.75000	     176.57530
      18.82813	     263.90881
      18.90625	     167.61014
      18.98438	     169.35194
      19.06250	     138.70389
      19.14063	     182.00563
      19.21875	     181.96721
      19.29688	     242.30276
      19.37500	     176.19109
      19.45313	     266.31659
      19.53125	     251.17827
      19.60938	     137.74333
      19.68750	     172.78432
      19.76563	     264.29303
      19.84375	     131.71106
      19.92188	     148.79610

Monitor Diode	  85256.78

"Cumulant 1.Order"
FluctuationFreq. [1/ms]	 1.7971E-001
DiffCoefficient [µm²/s]	 3.4246E-001
Hydrodyn. Radius [nm]	 6.0984E+002

"Cumulant 2.Order"
FluctuationFreq. [1/ms]	 1.8407E-001
DiffCoefficient [µm²/s]	 3.5078E-001
Hydrodyn. Radius [nm]	 5.9539E+002
Expansion Parameter µ2	 2.4555E-003

"Cumulant 3.Order"
FluctuationFreq. [1/ms]	 1.8712E-001
DiffCoefficient [µm²/s]	 3.5659E-001
Hydrodyn. Radius [nm]	 5.8568E+002
Expansion Parameter µ2	 6.7837E-003
Expansion Parameter µ3	 1.8721E-003

"StandardDeviation"
  1.25000E-004	  2.09618E-002
  2.50000E-004	  2.09624E-002
  3.75000E-004	  2.09631E-002
  5.00000E-004	  2.09640E-002
  6.25000E-004	  2.09645E-002
  7.50000E-004	  2.09655E-002
  8.75000E-004	  2.09660E-002
  1.00000E-003	  2.09668E-002
  1.12500E-003	  2.09650E-002
  1.25000E-003	  2.09624E-002
  1.37500E-003	  2.09618E-002
  1.50000E-003	  2.09631E-002
  1.62500E-003	  2.09599E-002
  1.75000E-003	  2.09617E-002
  1.87500E-003	  2.09589E-002
  2.00000E-003	  2.07137E-002
  2.25000E-003	  2.07138E-002
  2.50000E-003	  2.07142E-002
  2.75000E-003	  2.07143E-002
  3.00000E-003	  2.07145E-002
  3.25000E-003	  2.07140E-002
  3.50000E-003	  2.07142E-002
  3.75000E-003	  2.07143E-002
  4.00000E-003	  2.05898E-002
  4.50000E-003	  2.05893E-002
  5.00000E-003	  2.05892E-002
  5.50000E-003	  2.05892E-002
  6.00000E-003	  2.05893E-002
  6.50000E-003	  2.05892E-002
  7.00000E-003	  2.05892E-002
  7.50000E-003	  2.05891E-002
  8.00000E-003	  2.05262E-002
  9.00000E-003	  2.05250E-002
  1.00000E-002	  2.05251E-002
  1.10000E-002	  2.05248E-002
  1.20000E-002	  2.05248E-002
  1.30000E-002	  2.05250E-002
  1.40000E-002	  2.05247E-002
  1.50000E-002	  2.05248E-002
  1.60000E-002	  2.04928E-002
  1.80000E-002	  2.04900E-002
  2.00000E-002	  2.04900E-002
  2.20000E-002	  2.04898E-002
  2.40000E-002	  2.04896E-002
  2.60000E-002	  2.04893E-002
  2.80000E-002	  2.04894E-002
  3.00000E-002	  2.04892E-002
  3.20000E-002	  2.04719E-002
  3.60000E-002	  2.04666E-002
  4.00000E-002	  2.04666E-002
  4.40000E-002	  2.04663E-002
  4.80000E-002	  2.04656E-002
  5.20000E-002	  2.04650E-002
  5.60000E-002	  2.04649E-002
  6.00000E-002	  2.04642E-002
  6.40000E-002	  2.04495E-002
  7.20000E-002	  2.04387E-002
  8.00000E-002	  2.04374E-002
  8.80000E-002	  2.04368E-002
  9.60000E-002	  2.04355E-002
  1.04000E-001	  2.04340E-002
  1.12000E-001	  2.04333E-002
  1.20000E-001	  2.04314E-002
  1.28000E-001	  2.04190E-002
  1.44000E-001	  2.03989E-002
  1.60000E-001	  2.03953E-002
  1.76000E-001	  2.03926E-002
  1.92000E-001	  2.03849E-002
  2.08000E-001	  2.03810E-002
  2.24000E-001	  2.03771E-002
  2.40000E-001	  2.03723E-002
  2.56000E-001	  2.03577E-002
  2.88000E-001	  2.03148E-002
  3.20000E-001	  2.03017E-002
  3.52000E-001	  2.02933E-002
  3.84000E-001	  2.02804E-002
  4.16000E-001	  2.02693E-002
  4.48000E-001	  2.02540E-002
  4.80000E-001	  2.02372E-002
  5.12000E-001	  2.02005E-002
  5.76000E-001	  2.00942E-002
  6.40000E-001	  2.00578E-002
  7.04000E-001	  2.00177E-002
  7.68000E-001	  1.99740E-002
  8.32000E-001	  1.99298E-002
  8.96000E-001	  1.98831E-002
  9.60000E-001	  1.98339E-002
  1.02400E+000	  1.98230E-002
  1.15200E+000	  1.96532E-002
  1.28000E+000	  1.95337E-002
  1.40800E+000	  1.94050E-002
  1.53600E+000	  1.92733E-002
  1.66400E+000	  1.91113E-002
  1.79200E+000	  1.89632E-002
  1.92000E+000	  1.87976E-002
  2.01600E+000	  1.85660E-002
  2.27200E+000	  1.82125E-002
  2.52800E+000	  1.79113E-002
  2.78400E+000	  1.75800E-002
  3.04000E+000	  1.72679E-002
  3.29600E+000	  1.69583E-002
  3.55200E+000	  1.66486E-002
  3.80800E+000	  1.63373E-002
  4.06400E+000	  1.59665E-002
  4.57600E+000	  1.53147E-002
  5.08800E+000	  1.47494E-002
  5.60000E+000	  1.42155E-002
  6.11200E+000	  1.37032E-002
  6.62400E+000	  1.32590E-002
  7.13600E+000	  1.28560E-002
  7.64800E+000	  1.03732E-002
  8.16000E+000	  1.04031E-002
  9.18400E+000	  1.04031E-002
  1.02080E+001	  1.04031E-002
  1.12320E+001	  1.04031E-002
  1.22560E+001	  1.04031E-002
  1.32800E+001	  1.04031E-002
  1.43040E+001	  1.04031E-002
  1.53280E+001	  1.04031E-002
  1.63520E+001	  9.97510E-003
  1.84000E+001	  9.97510E-003
  2.04480E+001	  9.97510E-003
  2.24960E+001	  9.97510E-003
  2.45440E+001	  9.97510E-003
  2.65920E+001	  9.97510E-003
  2.86400E+001	  9.97510E-003
  3.06880E+001	  9.97510E-003
  3.27360E+001	  9.11971E-003
  3.68320E+001	  9.11971E-003
  4.09280E+001	  9.11971E-003
  4.50240E+001	  9.11971E-003
  4.91200E+001	  9.11971E-003
  5.32160E+001	  9.11971E-003
  5.73120E+001	  9.11971E-003
  6.14080E+001	  9.11971E-003
  6.55040E+001	  8.67175E-003
  7.36960E+001	  8.67175E-003
  8.18880E+001	  8.67175E-003
  9.00800E+001	  8.67175E-003
  9.82720E+001	  8.67175E-003
  1.06464E+002	  8.67175E-003
  1.14656E+002	  8.67175E-003
  1.22848E+002	  8.67175E-003
  1.31040E+002	  7.27804E-003
  1.47424E+002	  7.27804E-003
  1.63808E+002	  7.27804E-003
  1.80192E+002	  7.27804E-003
  1.96576E+002	  7.27804E-003
  2.12960E+002	  7.27804E-003
  2.29344E+002	  7.27804E-003
  2.45728E+002	  7.27804E-003
  2.62112E+002	  5.65304E-003
  2.94880E+002	  5.65304E-003
  3.27648E+002	  5.65304E-003
  3.60416E+002	  5.65304E-003
  3.93184E+002	  5.65304E-003
  4.25952E+002	  5.65304E-003
  4.58720E+002	  5.65304E-003
  4.91488E+002	  5.65304E-003
